TimeStamp,Delta_TP9,Delta_AF7,Delta_AF8,Delta_TP10,Theta_TP9,Theta_AF7,Theta_AF8,Theta_TP10,Alpha_TP9,Alpha_AF7,Alpha_AF8,Alpha_TP10,Beta_TP9,Beta_AF7,Beta_AF8,Beta_TP10,Gamma_TP9,Gamma_AF7,Gamma_AF8,Gamma_TP10,RAW_TP9,RAW_AF7,RAW_AF8,RAW_TP10,AUX_RIGHT,Accelerometer_X,Accelerometer_Y,Accelerometer_Z,Gyro_X,Gyro_Y,Gyro_Z,PPG_Ambient,PPG_IR,PPG_Red,Heart_Rate,HeadBandOn,HSI_TP9,HSI_AF7,HSI_AF8,HSI_TP10,Battery,Elements
2025-04-17 20:21:54.809,,,,,,,,,,,,,,,,,,,,,,,,,,,,,,,,,,,,,,,,,,/muse/event/connected Muse-1C98
2025-04-17 20:21:54.861,,,,,,,,,,,,,,,,,,,,,,,,,,,,,,,,,,,,,,,,,,/muse/elements/blink
2025-04-17 20:21:55.103,,,,,,,,,,,,,,,,,,,,,,,,,,,,,,,,,,,,,,,,,,/muse/elements/blink
2025-04-17 20:21:55.604,,,,,,,,,,,,,,,,,,,,,,,,,,,,,,,,,,,,,,,,,,/muse/elements/blink
2025-04-17 20:21:55.810,1.357963859416953,0,0,1.694713857753966,1.567764529357036,0,0,1.418885251494921,1.503918771841106,0,0,1.37486682466625,1.213734963307775,0,0,1.315996532435525,0.6647962010853992,0,0,0.7696755223575729,894.908424908425,875.1648351648352,733.7362637362637,872.7472527472528,802.6373626373627,0.221436,0.183228,0.964661,0.485992,-1.749573,0.067291,617289.377289,105678974.358974,81857728.937729,86.904755,1,2,2,4,2,40.000000
2025-04-17 20:21:56.107,,,,,,,,,,,,,,,,,,,,,,,,,,,,,,,,,,,,,,,,,,/muse/elements/blink
2025-04-17 20:21:56.542,,,,,,,,,,,,,,,,,,,,,,,,,,,,,,,,,,,,,,,,,,/muse/elements/jaw_clench
2025-04-17 20:21:56.629,,,,,,,,,,,,,,,,,,,,,,,,,,,,,,,,,,,,,,,,,,/muse/elements/blink
2025-04-17 20:21:56.810,1.357963859416953,0,0,1.694713857753966,1.567764529357036,0,0,1.418885251494921,1.503918771841106,0,0,1.37486682466625,1.213734963307775,0,0,1.315996532435525,0.6647962010853992,0,0,0.7696755223575729,757.5091575091575,1001.684981684982,307.8388278388279,762.7472527472528,614.4688644688645,-0.064453,0.260925,0.958740,-7.521667,2.474823,-18.101349,482710.622711,106343003.663004,76427838.827839,84.667480,1,2,2,4,2,40.000000
2025-04-17 20:21:56.826,,,,,,,,,,,,,,,,,,,,,,,,,,,,,,,,,,,,,,,,,,/muse/elements/blink
2025-04-17 20:21:57.153,,,,,,,,,,,,,,,,,,,,,,,,,,,,,,,,,,,,,,,,,,/muse/elements/blink
2025-04-17 20:21:57.810,1.357963859416953,0,0,1.694713857753966,1.567764529357036,0,0,1.418885251494921,1.503918771841106,0,0,1.37486682466625,1.213734963307775,0,0,1.315996532435525,0.6647962010853992,0,0,0.7696755223575729,776.4468864468864,587.8754578754579,780.4761904761905,899.3406593406594,813.5164835164835,-0.082947,0.239319,0.971741,3.357086,-0.000000,-4.501038,491575.091575,106616190.476190,73774945.054945,71.051369,1,2,2,4,2,40.000000
2025-04-17 20:21:58.144,,,,,,,,,,,,,,,,,,,,,,,,,,,,,,,,,,,,,,,,,,/muse/elements/blink
2025-04-17 20:21:58.360,,,,,,,,,,,,,,,,,,,,,,,,,,,,,,,,,,,,,,,,,,/muse/elements/blink
2025-04-17 20:21:58.810,1.357963859416953,0,0,1.694713857753966,1.567764529357036,0,0,1.418885251494921,1.503918771841106,0,0,1.37486682466625,1.213734963307775,0,0,1.315996532435525,0.6647962010853992,0,0,0.7696755223575729,929.1575091575091,603.1868131868132,796.996336996337,846.959706959707,782.0879120879121,0.258972,0.182800,0.962158,0.732727,-6.018829,0.964508,539926.739927,106658095.238095,80447472.527473,71.051369,1,2,1,4,2,40.000000
2025-04-17 20:21:59.682,,,,,,,,,,,,,,,,,,,,,,,,,,,,,,,,,,,,,,,,,,/muse/elements/blink
2025-04-17 20:21:59.810,1.357963859416953,0,0,1.694713857753966,1.567764529357036,0,0,1.418885251494921,1.503918771841106,0,0,1.37486682466625,1.213734963307775,0,0,1.315996532435525,0.6647962010853992,0,0,0.7696755223575729,875.5677655677656,703.5164835164835,668.4615384615385,869.5238095238095,602.3809523809524,0.281982,0.190002,0.950256,0.097198,-1.570129,-0.628052,549597.069597,106387326.007326,80686007.326007,73.109169,1,2,1,2,2,40.000000
2025-04-17 20:22:00.809,1.357963859416953,0,0,1.694713857753966,1.567764529357036,0,0,1.418885251494921,1.503918771841106,0,0,1.37486682466625,1.213734963307775,0,0,1.315996532435525,0.6647962010853992,0,0,0.7696755223575729,704.3223443223443,702.3076923076924,163.1868131868132,691.8315018315019,755.8974358974359,0.304199,0.211121,0.943298,0.919647,-4.291687,1.218719,572161.172161,106013406.593407,80316117.216117,73.109169,1,2,1,2,2,40.000000
2025-04-17 20:22:00.987,,,,,,,,,,,,,,,,,,,,,,,,,,,,,,,,,,,,,,,,,,/muse/elements/blink
2025-04-17 20:22:01.810,1.357963859416953,0,0,1.694713857753966,1.567764529357036,0,0,1.418885251494921,1.503918771841106,0,0,1.37486682466625,1.213734963307775,0,0,1.315996532435525,0.6647962010853992,0,0,0.7696755223575729,878.7912087912089,666.8498168498169,743.4065934065934,854.2124542124542,864.6886446886447,0.297058,0.198486,0.948364,0.979462,-1.532745,0.598145,556849.816850,106027912.087912,80615897.435897,82.031189,1,2,1,1,2,40.000000
2025-04-17 20:22:02.810,0.9305154029450047,0,0,1.153247110607358,0.6340054543228635,0,0,0.9742676494737705,1.098749621610095,0,0,1.482449157816999,0.8664537454823634,0,0,1.163208548551317,0.7030329972519164,0,0,0.7424152345853801,883.6263736263736,765.5677655677656,790.1465201465202,847.3626373626374,550.8058608058608,0.303406,0.196899,0.947449,-0.276642,-0.104675,0.874786,558461.538462,105927179.487179,81184029.304029,82.031189,1,1,1,2,1,40.000000
2025-04-17 20:22:03.147,,,,,,,,,,,,,,,,,,,,,,,,,,,,,,,,,,,,,,,,,,/muse/elements/blink
2025-04-17 20:22:03.433,,,,,,,,,,,,,,,,,,,,,,,,,,,,,,,,,,,,,,,,,,/muse/elements/blink
2025-04-17 20:22:03.812,0.7643644656624025,0,0,0.9551017051659895,0.5258461215766548,0,0,0.6763652787153268,1.035404674893859,0,0,1.231294748987527,0.8656100472146212,0,0,1.159637118481303,0.62494456656088,0,0,0.627869845961734,848.974358974359,695.8608058608058,570.5494505494505,829.2307692307693,768.7912087912088,0.311462,0.192932,0.947693,0.545807,-1.921539,-0.560760,574578.754579,106267252.747253,82030183.150183,82.031189,1,1,1,4,1,40.000000
2025-04-17 20:22:03.863,,,,,,,,,,,,,,,,,,,,,,,,,,,,,,,,,,,,,,,,,,/muse/elements/blink
2025-04-17 20:22:04.809,0.6751474587785291,0,0,0.806636638967217,0.5815208886961226,0,0,0.481158467747142,0.9568459096411821,0,0,0.9231645828605188,0.8507896100225409,0,0,1.160788939052588,0.6718253040654492,0,0,0.6323706806045547,859.047619047619,774.4322344322345,754.6886446886447,840.5128205128206,678.5347985347986,0.308044,0.196411,0.936584,0.665436,-1.457977,-0.411224,570549.450549,106395384.615385,82033406.593407,84.615501,1,1,1,2,1,40.000000
2025-04-17 20:22:05.810,0.6999596478287344,0,0,0.9373613436165764,0.5551604259693415,0,0,0.7932521659488387,1.115691587325911,0,0,1.223871629092843,0.8859750077140837,0,0,0.936683212502221,0.451743156642441,0,0,0.5698364262089429,819.1575091575091,701.9047619047619,786.1172161172161,808.6813186813187,651.1355311355312,0.318848,0.198364,0.939392,0.620575,-1.540222,0.276642,571355.311355,106473553.113553,81719926.739927,86.150841,1,1,1,1,1,40.000000
2025-04-17 20:22:06.185,,,,,,,,,,,,,,,,,,,,,,,,,,,,,,,,,,,,,,,,,,/muse/elements/blink
2025-04-17 20:22:06.810,0.6910557943427398,0,0,0.9696154563183919,0.5012047519193539,0,0,0.7877986809564798,1.135319864254478,0,0,1.198349572636199,0.9057041780683287,0,0,0.9391825983399991,0.4253161783518042,0,0,0.5381252249505066,727.6923076923077,782.893772893773,805.8608058608058,733.3333333333334,770,0.320679,0.192749,0.935425,0.254211,-1.794434,0.142059,580219.780220,106282564.102564,82147838.827839,87.010872,1,1,1,1,1,40.000000
2025-04-17 20:22:06.995,,,,,,,,,,,,,,,,,,,,,,,,,,,,,,,,,,,,,,,,,,/muse/elements/blink
2025-04-17 20:22:07.809,0.6175552732909431,0,0,0.8538291297151874,0.3233688197174749,0,0,0.6743986864081875,1.124079666567149,0,0,1.018346550768846,0.9193001878146375,0,0,0.8708972852632676,0.3493595591344778,0,0,0.5813644814349251,853.0036630036631,788.5347985347986,755.0915750915751,818.7545787545788,702.7106227106227,0.319397,0.192627,0.940918,0.814972,-2.243042,0.261688,586666.666667,106243076.923077,82599120.879121,90.372665,1,1,1,1,1,40.000000
2025-04-17 20:22:08.809,0.7217139011558108,0,0,0.8538291297151874,0.8774765186543635,0,0,0.6743986864081875,1.276019696886372,0,0,1.018346550768846,0.7506963221954295,0,0,0.8708972852632676,0.625091853631545,0,0,0.5813644814349251,719.6336996336996,746.2271062271062,881.6117216117217,699.4871794871796,630.1831501831502,0.317078,0.189087,0.941284,0.598145,-1.084137,0.433655,604395.604396,106964322.344322,84092380.952381,90.372665,1,1,1,1,1,40.000000
2025-04-17 20:22:08.918,,,,,,,,,,,,,,,,,,,,,,,,,,,,,,,,,,,,,,,,,,/muse/elements/blink
2025-04-17 20:22:09.810,0.6158122798621575,0,0,0.8538291297151874,0.9713429300660044,0,0,0.6743986864081875,1.27433808883159,0,0,1.018346550768846,0.7118031897651975,0,0,0.8708972852632676,0.6376885362522414,0,0,0.5813644814349251,795.7875457875458,798.6080586080586,751.4652014652015,785.3113553113553,723.2600732600732,0.320251,0.186890,0.933594,0.530853,-1.555176,0.059814,593919.413919,106874065.934066,83695897.435897,107.232994,1,1,1,1,1,40.000000
2025-04-17 20:22:10.810,0.6196540882687162,0,0,0.5334175107576116,0.7849683667730629,0,0,0.6899873380645136,0.9575551122020172,0,0,1.158505472840769,0.7297527386145989,0,0,1.101579453378718,0.4485837465473288,0,0,0.652911357762483,836.8864468864469,780.8791208791209,736.959706959707,830.4395604395604,1108.864468864469,0.320496,0.187134,0.939148,0.231781,-1.966400,0.171967,594725.274725,106923223.443223,83784542.124542,107.232994,1,1,1,1,1,40.000000
2025-04-17 20:22:11.809,0.5525664567506372,0,0,0.5842197926632078,0.6471640260205044,0,0,0.486776746590352,0.9818135165244993,0,0,0.9504304892853072,0.7356479755131501,0,0,0.9790473137377631,0.5168080376340484,0,0,0.7102752986452108,849.3772893772895,801.025641025641,863.8827838827839,845.3479853479854,652.7472527472528,0.338623,0.192078,0.940063,1.009369,-1.727142,-0.014954,596336.996337,106947399.267399,83986007.326007,107.232994,1,1,1,1,1,40.000000
2025-04-17 20:22:12.809,0.6299685984020985,0,0,0.5756337359567473,0.6808261972861117,0,0,0.6418347507930648,0.8635485974954921,0,0,1.141331572641768,0.7311356330467391,0,0,0.9911722306324779,0.3667132195606015,0,0,0.651832001794179,783.2967032967033,764.7619047619048,761.941391941392,805.4578754578755,948.901098901099,0.328735,0.193848,0.935608,0.665436,-0.919647,0.224304,592307.692308,106933699.633700,83942490.842491,105.939575,1,1,1,1,1,40.000000
2025-04-17 20:22:13.604,,,,,,,,,,,,,,,,,,,,,,,,,,,,,,,,,,,,,,,,,,/muse/elements/blink
2025-04-17 20:22:13.775,,,,,,,,,,,,,,,,,,,,,,,,,,,,,,,,,,,,,,,,,,/muse/elements/blink
2025-04-17 20:22:13.809,0.7683682814203253,0,0,0.5704412342013286,0.5522512281035522,0,0,0.7503046993391899,0.8232228509283651,0,0,1.151874541495309,0.8535830067761102,0,0,0.9642728235904947,0.350797032611773,0,0,0.6877075411373121,849.3772893772895,782.893772893773,769.1941391941392,850.989010989011,639.4505494505495,0.334839,0.188232,0.932495,0.269165,-1.854248,0.530853,591501.831502,106878901.098901,83752307.692308,93.770744,1,1,1,1,1,40.000000
2025-04-17 20:22:14.809,0.8719493298805179,0,0,0.6833515189263227,0.6304151042047085,0,0,0.6971080024399366,0.7376482370339313,0,0,0.8582778205932851,0.8794925283582523,0,0,0.8321062623644335,0.3503633484846713,0,0,0.5343910301502152,861.0622710622711,757.1062271062272,787.3260073260074,828.8278388278388,599.9633699633699,0.337158,0.192444,0.938416,0.403748,-0.717773,-0.246735,593919.413919,106814432.234432,83840952.380952,87.023140,1,1,1,4,1,40.000000
2025-04-17 20:22:15.101,,,,,,,,,,,,,,,,,,,,,,,,,,,,,,,,,,,,,,,,,,/muse/elements/blink
2025-04-17 20:22:15.444,,,,,,,,,,,,,,,,,,,,,,,,,,,,,,,,,,,,,,,,,,/muse/elements/blink
2025-04-17 20:22:15.809,0.8719493298805179,0,0,0.6833515189263227,0.6304151042047085,0,0,0.6971080024399366,0.7376482370339313,0,0,0.8582778205932851,0.8794925283582523,0,0,0.8321062623644335,0.3503633484846713,0,0,0.5343910301502152,825.6043956043957,756.7032967032967,763.1501831501831,806.6666666666667,1031.904761904762,0.335449,0.188293,0.931702,0.837402,-1.158905,-0.022430,597948.717949,106835384.615385,83999706.959707,83.880074,1,1,1,1,1,40.000000
2025-04-17 20:22:16.809,0.8719493298805179,0,0,0.6833515189263227,0.6304151042047085,0,0,0.6971080024399366,0.7376482370339313,0,0,0.8582778205932851,0.8794925283582523,0,0,0.8321062623644335,0.3503633484846713,0,0,0.5343910301502152,815.934065934066,752.6739926739926,753.4798534798535,816.7399267399268,624.1391941391942,0.335510,0.183838,0.939514,-0.014954,-1.734619,-0.485992,596336.996337,106749157.509158,83906227.106227,80.986725,1,2,1,1,2,40.000000
2025-04-17 20:22:17.810,0.8719493298805179,0,0,0.8207874679267546,0.6304151042047085,0,0,0.6053906128800578,0.7376482370339313,0,0,0.6326981841709833,0.8794925283582523,0,0,1.017587024147662,0.3503633484846713,0,0,0.6012370496796988,827.2161172161173,760.7326007326008,827.6190476190476,799.4139194139194,566.5201465201466,0.329834,0.184692,0.937622,0.299072,-1.338348,-0.471039,598754.578755,106546886.446886,83869963.369963,81.181946,1,1,1,2,1,40.000000
2025-04-17 20:22:18.809,0.7727540304087412,0,0,0.7507800054233402,0.6892889962136659,0,0,0.698027836147455,0.7037381042990506,0,0,0.9757485858142351,0.5750212116803256,0,0,0.889684431505346,0.4484309979153837,0,0,0.4444759684177236,796.996336996337,771.6117216117216,761.1355311355312,790.5494505494506,663.6263736263736,0.344299,0.184692,0.932251,0.732727,-1.420593,0.007477,596336.996337,106440512.820513,83744249.084249,81.886917,1,1,1,1,1,40.000000
2025-04-17 20:22:19.809,0.7903422417481941,0,0,0.7871535515855029,0.6360033542438014,0,0,0.8136639612631231,0.698721941080087,0,0,1.14676263500759,0.7007738805999838,0,0,0.8895880810159827,0.4283134594460683,0,0,0.5839810463121323,814.3223443223443,795.3846153846154,782.0879120879121,799.4139194139194,734.9450549450549,0.340698,0.183289,0.931396,0.201874,-1.450500,0.164490,602783.882784,106581538.461538,84012600.732601,81.512787,1,1,1,1,1,40.000000
2025-04-17 20:22:20.810,0.8023904460766178,0,0,0.8061875210013951,0.5539541565137982,0,0,0.6162088690898485,1.004464699671348,0,0,1.14773523631478,0.8399207432377834,0,0,0.8640644984694158,0.6399296634034378,0,0,0.7577159921073648,730.1098901098901,817.1428571428571,923.5164835164835,670.4761904761905,566.5201465201466,0.340637,0.181824,0.933472,0.328979,-1.308441,-0.328979,605201.465201,106882930.402930,84387326.007326,81.413170,1,1,1,1,1,40.000000
2025-04-17 20:22:20.900,,,,,,,,,,,,,,,,,,,,,,,,,,,,,,,,,,,,,,,,,,/muse/elements/blink
2025-04-17 20:22:21.812,0.4595967028684541,0,0,0.4399793515777335,0.5160746471983421,0,0,0.6505792363062222,0.8944026459734408,0,0,0.9821676110660903,0.7999917833787288,0,0,0.664094761959059,0.822609833048389,0,0,0.8327644181114544,758.7179487179487,752.2710622710623,860.6593406593407,749.4505494505495,638.2417582417582,0.333679,0.182129,0.936462,0.515900,-1.233673,-0.067291,604395.604396,107085201.465201,84787838.827839,81.413170,1,1,1,1,1,40.000000
2025-04-17 20:22:22.823,0.4595967028684541,0,0,0.4399793515777335,0.5160746471983421,0,0,0.6505792363062222,0.8944026459734408,0,0,0.9821676110660903,0.7999917833787288,0,0,0.664094761959059,0.822609833048389,0,0,0.8327644181114544,794.1758241758242,740.989010989011,745.4212454212454,776.8498168498169,839.3040293040293,0.342163,0.178284,0.935486,0.014954,-0.971985,-0.441132,603589.743590,107041684.981685,84775750.915751,81.413170,1,1,1,1,1,40.000000
2025-04-17 20:22:23.108,,,,,,,,,,,,,,,,,,,,,,,,,,,,,,,,,,,,,,,,,,/muse/elements/blink
2025-04-17 20:22:23.810,0.7202175164321217,0,0,0.4399793515777335,0.5785859630973081,0,0,0.6505792363062222,0.6981698810204278,0,0,0.9821676110660903,0.9565917754680588,0,0,0.664094761959059,0.7192944503367522,0,0,0.8327644181114544,833.6630036630037,769.1941391941392,821.978021978022,828.4249084249085,564.1025641025641,0.336548,0.182922,0.933044,0.732727,-1.413116,0.119629,598754.578755,107019120.879121,84641978.021978,81.463394,1,1,1,1,1,40.000000
2025-04-17 20:22:24.809,0.5716444389781161,0,0,0.2927036606922002,0.4215356555319871,0,0,1.080843361308091,1.018362025012494,0,0,1.486515943582653,0.7617943348363765,0,0,0.8950812232530294,0.5121291667722537,0,0,0.826657757186781,789.3406593406594,760.3296703296703,795.3846153846154,760.7326007326008,940.0366300366301,0.344299,0.178955,0.925415,0.628052,-2.078552,0.456085,601978.021978,107022344.322344,84829743.589744,81.548721,1,1,1,1,1,40.000000
2025-04-17 20:22:25.809,0.5716444389781161,0,0,0.2927036606922002,0.4215356555319871,0,0,1.080843361308091,1.018362025012494,0,0,1.486515943582653,0.7617943348363765,0,0,0.8950812232530294,0.5121291667722537,0,0,0.826657757186781,780.8791208791209,773.2234432234433,842.5274725274726,780.4761904761905,606.007326007326,0.343872,0.179871,0.926941,0.403748,-1.525269,-0.351410,604395.604396,107253626.373626,85035238.095238,79.273224,1,1,1,4,1,40.000000
2025-04-17 20:22:26.686,,,,,,,,,,,,,,,,,,,,,,,,,,,,,,,,,,,,,,,,,,/muse/elements/blink
2025-04-17 20:22:26.810,0.6160515145726098,1.0079823311623,0,0.2154700105933375,0.4713778668566068,0.7388688961507214,0,1.080862063562307,1.018362025012494,0.7551059953189319,0,1.486515943582653,0.719067963495596,0.7663716962456928,0,0.9083093755389889,0.5442151280765147,0.5475164906235588,0,0.8567332461352829,815.934065934066,761.1355311355312,838.901098901099,803.040293040293,552.014652014652,0.342773,0.183777,0.937012,0.583191,-1.966400,0.194397,605201.465201,107360805.860806,85192380.952381,78.106529,1,1,1,1,1,40.000000
2025-04-17 20:22:27.286,,,,,,,,,,,,,,,,,,,,,,,,,,,,,,,,,,,,,,,,,,/muse/elements/blink
2025-04-17 20:22:27.811,0.6160515145726098,0.848517206364375,0,0.2154700105933375,0.4713778668566068,0.6845153334281679,0,1.080862063562307,1.018362025012494,0.8433431784139673,0,1.486515943582653,0.719067963495596,0.761112202104971,0,0.9083093755389889,0.5442151280765147,0.4804136525246817,0,0.8567332461352829,864.2857142857143,770.4029304029305,734.1391941391942,840.5128205128206,1412.271062271062,0.336487,0.178833,0.930237,0.620575,-1.801910,0.209351,605201.465201,107115018.315018,85106153.846154,78.106529,1,2,1,1,2,40.000000
2025-04-17 20:22:28.809,0.6160515145726098,0.5976689373587444,0,0.2154700105933375,0.4713778668566068,0.6324158347657968,0,1.080862063562307,1.018362025012494,0.6127299822951883,0,1.486515943582653,0.719067963495596,0.7649324074634903,0,0.9083093755389889,0.5442151280765147,0.3906549379282749,0,0.8567332461352829,761.5384615384615,708.3516483516484,623.3333333333334,767.1794871794872,694.6520146520147,0.348022,0.177734,0.933411,0.269165,-2.198181,-0.142059,599560.439560,107016703.296703,85246373.626374,78.106529,1,2,1,1,2,40.000000
2025-04-17 20:22:29.813,0.8556097133862672,0.5976689373587444,0,1.026480678178418,0.4922725029899571,0.6324158347657968,0,0.4315613614824962,0.8416097671589223,0.6127299822951883,0,1.193276040359465,0.9328910806654954,0.7649324074634903,0,1.098178547537475,0.7877156845645157,0.3906549379282749,0,0.7471952179494529,776.4468864468864,780.8791208791209,848.974358974359,777.6556776556777,581.4285714285714,0.342957,0.178284,0.934875,0.157013,-0.747681,0.089722,588278.388278,106631501.831502,84188278.388278,78.106529,1,1,1,1,1,40.000000
2025-04-17 20:22:30.261,,,,,,,,,,,,,,,,,,,,,,,,,,,,,,,,,,,,,,,,,,/muse/elements/blink
2025-04-17 20:22:30.809,0.81390896298853,0.5976689373587444,0,0.7197129737605645,0.1805326681525281,0.6324158347657968,0,0.494789131838602,0.210625009674117,0.6127299822951883,0,0.990686020576628,0.8664562368365941,0.7649324074634903,0,1.153337546007399,0.6061459557998145,0.3906549379282749,0,0.6927932300827438,919.4871794871796,745.8241758241759,724.4688644688645,884.8351648351648,955.3479853479854,0.344727,0.181885,0.931763,0.239258,-0.672913,-0.635529,600366.300366,106769304.029304,84729010.989011,78.106529,1,1,1,1,1,40.000000
2025-04-17 20:22:30.859,,,,,,,,,,,,,,,,,,,,,,,,,,,,,,,,,,,,,,,,,,/muse/elements/blink
2025-04-17 20:22:31.780,,,,,,,,,,,,,,,,,,,,,,,,,,,,,,,,,,,,,,,,,,/muse/elements/blink
2025-04-17 20:22:31.809,0.749235865322689,0.5976689373587444,0,0.7974434218472782,0.1199703101366344,0.6324158347657968,0,0.5896525655518391,0.1259877157144987,0.6127299822951883,0,0.9330625181031307,0.9103041004647916,0.7649324074634903,0,1.169401110018929,0.5468678418478014,0.3906549379282749,0,0.735846122682752,672.0879120879121,714.7985347985348,712.7838827838829,711.5750915750916,715.2014652014652,0.347656,0.182373,0.929810,0.306549,-1.039276,-0.089722,602783.882784,106861978.021978,84880512.820513,78.106529,1,1,1,1,1,40.000000
2025-04-17 20:22:31.976,,,,,,,,,,,,,,,,,,,,,,,,,,,,,,,,,,,,,,,,,,/muse/elements/blink
2025-04-17 20:22:32.681,,,,,,,,,,,,,,,,,,,,,,,,,,,,,,,,,,,,,,,,,,/muse/elements/blink
2025-04-17 20:22:32.808,0.749235865322689,0.5976689373587444,0,0.7974434218472782,0.1199703101366344,0.6324158347657968,0,0.5896525655518391,0.1259877157144987,0.6127299822951883,0,0.9330625181031307,0.9103041004647916,0.7649324074634903,0,1.169401110018929,0.5468678418478014,0.3906549379282749,0,0.735846122682752,882.4175824175825,755.8974358974359,857.8388278388279,886.4468864468864,508.9010989010989,0.331055,0.179993,0.930359,1.158905,-1.173859,0.613098,612454.212454,107044908.424908,85231868.131868,78.106529,1,2,1,1,2,40.000000
2025-04-17 20:22:33.809,0.749235865322689,0.5976689373587444,0,0.7974434218472782,0.1199703101366344,0.6324158347657968,0,0.5896525655518391,0.1259877157144987,0.6127299822951883,0,0.9330625181031307,0.9103041004647916,0.7649324074634903,0,1.169401110018929,0.5468678418478014,0.3906549379282749,0,0.735846122682752,797.8021978021978,920.2930402930403,655.5677655677656,799.4139194139194,677.7289377289377,0.338745,0.179199,0.937073,-0.082245,-1.637421,-0.702820,612454.212454,107091648.351648,85192380.952381,78.106529,1,2,1,1,2,40.000000
2025-04-17 20:22:33.894,,,,,,,,,,,,,,,,,,,,,,,,,,,,,,,,,,,,,,,,,,/muse/elements/blink
2025-04-17 20:22:34.809,0.749235865322689,0.5976689373587444,0,0.7974434218472782,0.1199703101366344,0.6324158347657968,0,0.5896525655518391,0.1259877157144987,0.6127299822951883,0,0.9330625181031307,0.9103041004647916,0.7649324074634903,0,1.169401110018929,0.5468678418478014,0.3906549379282749,0,0.735846122682752,635.0183150183151,726.4835164835165,588.6813186813187,656.3736263736264,584.6520146520147,0.332703,0.177307,0.930420,0.269165,-1.300964,-0.650482,614871.794872,106782197.802198,85071501.831502,78.106529,1,2,1,1,2,40.000000
2025-04-17 20:22:34.853,,,,,,,,,,,,,,,,,,,,,,,,,,,,,,,,,,,,,,,,,,/muse/elements/blink
2025-04-17 20:22:35.302,,,,,,,,,,,,,,,,,,,,,,,,,,,,,,,,,,,,,,,,,,/muse/elements/blink
2025-04-17 20:22:35.530,,,,,,,,,,,,,,,,,,,,,,,,,,,,,,,,,,,,,,,,,,/muse/elements/blink
2025-04-17 20:22:35.809,0.749235865322689,0.5976689373587444,0,0.7974434218472782,0.1199703101366344,0.6324158347657968,0,0.5896525655518391,0.1259877157144987,0.6127299822951883,0,0.9330625181031307,0.9103041004647916,0.7649324074634903,0,1.169401110018929,0.5468678418478014,0.3906549379282749,0,0.735846122682752,770.4029304029305,732.5274725274726,1352.637362637363,786.5201465201466,619.3040293040293,0.331543,0.172913,0.936462,1.009369,-1.106567,0.104675,612454.212454,106856336.996337,85597728.937729,78.106529,1,2,1,1,2,40.000000
2025-04-17 20:22:36.335,,,,,,,,,,,,,,,,,,,,,,,,,,,,,,,,,,,,,,,,,,/muse/elements/blink
2025-04-17 20:22:36.809,0.749235865322689,0.5976689373587444,0,0.7974434218472782,0.1199703101366344,0.6324158347657968,0,0.5896525655518391,0.1259877157144987,0.6127299822951883,0,0.9330625181031307,0.9103041004647916,0.7649324074634903,0,1.169401110018929,0.5468678418478014,0.3906549379282749,0,0.735846122682752,823.5897435897436,724.0659340659341,568.9377289377289,830.8424908424909,1251.098901098901,0.333862,0.196716,0.933777,1.772003,-0.545807,1.712189,604395.604396,106505787.545788,85628351.648352,82.585785,1,2,1,2,2,40.000000
2025-04-17 20:22:37.390,,,,,,,,,,,,,,,,,,,,,,,,,,,,,,,,,,,,,,,,,,/muse/elements/blink
2025-04-17 20:22:37.814,0.749235865322689,0.5976689373587444,0,0.7974434218472782,0.1199703101366344,0.6324158347657968,0,0.5896525655518391,0.1259877157144987,0.6127299822951883,0,0.9330625181031307,0.9103041004647916,0.7649324074634903,0,1.169401110018929,0.5468678418478014,0.3906549379282749,0,0.735846122682752,806.6666666666667,844.5421245421246,761.1355311355312,801.8315018315019,617.2893772893773,0.333252,0.191467,0.932007,-1.218719,-2.056122,-0.560760,605201.465201,106801538.461538,85916043.956044,83.445793,1,2,1,2,2,40.000000
2025-04-17 20:22:38.818,0.749235865322689,0.5976689373587444,0,0.7974434218472782,0.1199703101366344,0.6324158347657968,0,0.5896525655518391,0.1259877157144987,0.6127299822951883,0,0.9330625181031307,0.9103041004647916,0.7649324074634903,0,1.169401110018929,0.5468678418478014,0.3906549379282749,0,0.735846122682752,707.5457875457876,815.934065934066,682.5641025641025,724.4688644688645,753.0769230769231,0.340820,0.199219,0.923096,0.545807,-1.659851,-0.142059,597142.857143,106353479.853480,85173846.153846,85.233757,1,2,1,2,2,40.000000
2025-04-17 20:22:39.822,0.749235865322689,0.5976689373587444,0,1.194140247687528,0.1199703101366344,0.6324158347657968,0,1.381880868976664,0.1259877157144987,0.6127299822951883,0,1.317090288458712,0.9103041004647916,0.7649324074634903,0,1.35001450310618,0.5468678418478014,0.3906549379282749,0,0.9344216400955686,796.5934065934066,728.4981684981685,665.2380952380953,753.8827838827839,792.5641025641025,0.348633,0.196533,0.928589,0.082245,-0.000000,0.351410,592307.692308,106077875.457875,85041684.981685,85.464180,1,1,2,2,1,40.000000
2025-04-17 20:22:40.809,0.749235865322689,0.5976689373587444,0,1.249719591623121,0.1199703101366344,0.6324158347657968,0,1.138445082236503,0.1259877157144987,0.6127299822951883,0,1.387481794780568,0.9103041004647916,0.7649324074634903,0,0.9833588145756197,0.5468678418478014,0.3906549379282749,0,0.7201790285054929,810.6959706959707,690.6227106227107,1077.838827838828,781.6849816849817,651.1355311355312,0.337830,0.193359,0.931091,0.545807,-1.936493,-0.343933,594725.274725,105930402.930403,84928864.468864,85.837410,1,1,1,2,1,40.000000
2025-04-17 20:22:41.200,,,,,,,,,,,,,,,,,,,,,,,,,,,,,,,,,,,,,,,,,,/muse/elements/blink
2025-04-17 20:22:41.809,0.749235865322689,0.5976689373587444,0,1.094652819298281,0.1199703101366344,0.6324158347657968,0,0.8562895107080031,0.1259877157144987,0.6127299822951883,0,1.029132871991375,0.9103041004647916,0.7649324074634903,0,0.8937668599182298,0.5468678418478014,0.3906549379282749,0,0.5411533100388942,832.8571428571429,813.1135531135532,1312.344322344322,827.6190476190476,747.032967032967,0.339355,0.189392,0.934082,0.628052,-1.360779,-0.067291,604395.604396,106600879.120879,86074798.534799,85.739464,1,1,2,2,1,40.000000
2025-04-17 20:22:42.809,0.749235865322689,0.5976689373587444,0,0.7842386462918437,0.1199703101366344,0.6324158347657968,0,0.6887977031401488,0.1259877157144987,0.6127299822951883,0,0.8449741944524066,0.9103041004647916,0.7649324074634903,0,0.9959739024732016,0.5468678418478014,0.3906549379282749,0,0.4315837095782663,785.7142857142858,779.2673992673992,1052.051282051282,789.7435897435897,732.1245421245421,0.339478,0.192810,0.928955,0.284119,-1.286011,-0.732727,603589.743590,106841831.501832,85858827.838828,85.359314,1,1,2,2,1,40.000000
2025-04-17 20:22:42.853,,,,,,,,,,,,,,,,,,,,,,,,,,,,,,,,,,,,,,,,,,/muse/elements/blink
2025-04-17 20:22:43.364,,,,,,,,,,,,,,,,,,,,,,,,,,,,,,,,,,,,,,,,,,/muse/elements/blink
2025-04-17 20:22:43.817,0.749235865322689,0.5976689373587444,0,0.7842386462918437,0.1199703101366344,0.6324158347657968,0,0.6887977031401488,0.1259877157144987,0.6127299822951883,0,0.8449741944524066,0.9103041004647916,0.7649324074634903,0,0.9959739024732016,0.5468678418478014,0.3906549379282749,0,0.4315837095782663,789.3406593406594,827.2161172161173,709.1575091575091,769.1941391941392,787.7289377289378,0.338562,0.188049,0.929749,0.269165,-1.682281,-0.194397,600366.300366,106581538.461538,85434945.054945,82.298698,1,2,2,2,2,40.000000
2025-04-17 20:22:44.081,,,,,,,,,,,,,,,,,,,,,,,,,,,,,,,,,,,,,,,,,,/muse/elements/blink
2025-04-17 20:22:44.692,,,,,,,,,,,,,,,,,,,,,,,,,,,,,,,,,,,,,,,,,,/muse/elements/blink
2025-04-17 20:22:44.809,0.749235865322689,0.5976689373587444,0,0.7842386462918437,0.1199703101366344,0.6324158347657968,0,0.6887977031401488,0.1259877157144987,0.6127299822951883,0,0.8449741944524066,0.9103041004647916,0.7649324074634903,0,0.9959739024732016,0.5468678418478014,0.3906549379282749,0,0.4315837095782663,784.1025641025641,772.014652014652,945.6776556776557,788.9377289377289,560.0732600732601,0.337402,0.188354,0.929260,0.515900,-1.465454,-0.097198,603589.743590,106376849.816850,85614652.014652,82.298698,1,2,1,2,2,40.000000
2025-04-17 20:22:45.476,,,,,,,,,,,,,,,,,,,,,,,,,,,,,,,,,,,,,,,,,,/muse/elements/blink
2025-04-17 20:22:45.811,0.749235865322689,0.5976689373587444,0,0.7842386462918437,0.1199703101366344,0.6324158347657968,0,0.6887977031401488,0.1259877157144987,0.6127299822951883,0,0.8449741944524066,0.9103041004647916,0.7649324074634903,0,0.9959739024732016,0.5468678418478014,0.3906549379282749,0,0.4315837095782663,840.5128205128206,801.025641025641,835.6776556776557,840.9157509157509,781.6849816849817,0.337524,0.185547,0.929871,0.328979,-1.465454,-0.194397,606813.186813,106353479.853480,85542124.542125,82.070381,1,2,1,2,2,40.000000
2025-04-17 20:22:45.820,,,,,,,,,,,,,,,,,,,,,,,,,,,,,,,,,,,,,,,,,,/muse/elements/blink
2025-04-17 20:22:46.809,0.749235865322689,0.5976689373587444,0,0.7842386462918437,0.1199703101366344,0.6324158347657968,0,0.6887977031401488,0.1259877157144987,0.6127299822951883,0,0.8449741944524066,0.9103041004647916,0.7649324074634903,0,0.9959739024732016,0.5468678418478014,0.3906549379282749,0,0.4315837095782663,768.3882783882784,678.9377289377289,252.2344322344322,771.2087912087912,937.2161172161173,0.340454,0.190125,0.931946,0.314026,-1.450500,-0.209351,606007.326007,106140732.600733,85337435.897436,81.903625,1,2,1,2,2,40.000000
2025-04-17 20:22:46.879,,,,,,,,,,,,,,,,,,,,,,,,,,,,,,,,,,,,,,,,,,/muse/elements/blink
2025-04-17 20:22:47.489,,,,,,,,,,,,,,,,,,,,,,,,,,,,,,,,,,,,,,,,,,/muse/elements/blink
2025-04-17 20:22:47.809,0.749235865322689,0.5976689373587444,0,0.7842386462918437,0.1199703101366344,0.6324158347657968,0,0.6887977031401488,0.1259877157144987,0.6127299822951883,0,0.8449741944524066,0.9103041004647916,0.7649324074634903,0,0.9959739024732016,0.5468678418478014,0.3906549379282749,0,0.4315837095782663,828.8278388278388,766.3736263736264,998.0586080586081,803.4432234432235,626.1538461538462,0.336731,0.187561,0.935730,0.411224,-0.979462,-0.254211,609230.769231,106662930.402930,85866080.586081,81.843880,1,2,1,2,2,40.000000
2025-04-17 20:22:48.526,,,,,,,,,,,,,,,,,,,,,,,,,,,,,,,,,,,,,,,,,,/muse/elements/blink
2025-04-17 20:22:48.814,0.749235865322689,0.5976689373587444,0,0.7842386462918437,0.1199703101366344,0.6324158347657968,0,0.6887977031401488,0.1259877157144987,0.6127299822951883,0,0.8449741944524066,0.9103041004647916,0.7649324074634903,0,0.9959739024732016,0.5468678418478014,0.3906549379282749,0,0.4315837095782663,780.8791208791209,766.3736263736264,906.5934065934066,795.3846153846154,700.6959706959707,0.337524,0.184570,0.936646,0.157013,-1.128998,-0.822449,614871.794872,106897435.897436,86050622.710623,78.249817,1,2,1,2,2,40.000000
2025-04-17 20:22:49.808,0.749235865322689,0.5976689373587444,0,0.7842386462918437,0.1199703101366344,0.6324158347657968,0,0.6887977031401488,0.1259877157144987,0.6127299822951883,0,0.8449741944524066,0.9103041004647916,0.7649324074634903,0,0.9959739024732016,0.5468678418478014,0.3906549379282749,0,0.4315837095782663,881.6117216117217,907.8021978021978,549.5970695970697,875.9706959706959,720.0366300366301,0.336487,0.180054,0.934021,1.914062,-2.228088,0.598145,615677.655678,107337435.897436,86442271.062271,78.249817,1,2,1,2,2,40.000000
2025-04-17 20:22:50.452,,,,,,,,,,,,,,,,,,,,,,,,,,,,,,,,,,,,,,,,,,/muse/elements/blink
2025-04-17 20:22:50.809,0.749235865322689,0.5976689373587444,0,0.7842386462918437,0.1199703101366344,0.6324158347657968,0,0.6887977031401488,0.1259877157144987,0.6127299822951883,0,0.8449741944524066,0.9103041004647916,0.7649324074634903,0,0.9959739024732016,0.5468678418478014,0.3906549379282749,0,0.4315837095782663,696.2637362637363,899.7435897435897,1373.589743589744,686.1904761904763,660.4029304029305,0.342468,0.176025,0.935425,-2.676697,-2.063599,0.613098,616483.516484,108082051.282051,86913699.633700,99.834686,1,2,1,2,2,40.000000
2025-04-17 20:22:51.378,,,,,,,,,,,,,,,,,,,,,,,,,,,,,,,,,,,,,,,,,,/muse/elements/blink
2025-04-17 20:22:51.809,0.749235865322689,0.5976689373587444,0,0.7842386462918437,0.1199703101366344,0.6324158347657968,0,0.6887977031401488,0.1259877157144987,0.6127299822951883,0,0.8449741944524066,0.9103041004647916,0.7649324074634903,0,0.9959739024732016,0.5468678418478014,0.3906549379282749,0,0.4315837095782663,715.6043956043957,792.1611721611722,601.1721611721612,718.8278388278388,681.3553113553114,0.369690,0.174927,0.926514,1.286011,-1.069183,-0.328979,603589.743590,107623516.483516,86555091.575092,88.144836,1,2,4,2,2,40.000000
2025-04-17 20:22:52.094,,,,,,,,,,,,,,,,,,,,,,,,,,,,,,,,,,,,,,,,,,/muse/elements/blink
2025-04-17 20:22:52.809,0.749235865322689,0.5976689373587444,0,0.7842386462918437,0.1199703101366344,0.6324158347657968,0,0.6887977031401488,0.1259877157144987,0.6127299822951883,0,0.8449741944524066,0.9103041004647916,0.7649324074634903,0,0.9959739024732016,0.5468678418478014,0.3906549379282749,0,0.4315837095782663,771.2087912087912,773.2234432234433,787.3260073260074,773.6263736263736,635.8241758241759,0.367432,0.202942,0.916992,-0.224304,-1.921539,-0.388794,586666.666667,107348717.948718,86565567.765568,83.539764,1,2,1,2,2,40.000000
2025-04-17 20:22:53.209,,,,,,,,,,,,,,,,,,,,,,,,,,,,,,,,,,,,,,,,,,/muse/elements/blink
2025-04-17 20:22:53.808,0.749235865322689,0.5976689373587444,0,0.7842386462918437,0.1199703101366344,0.6324158347657968,0,0.6887977031401488,0.1259877157144987,0.6127299822951883,0,0.8449741944524066,0.9103041004647916,0.7649324074634903,0,0.9959739024732016,0.5468678418478014,0.3906549379282749,0,0.4315837095782663,693.040293040293,805.8608058608058,713.1868131868132,690.2197802197802,648.3150183150183,0.349487,0.192505,0.925049,0.628052,-1.091614,-0.635529,604395.604396,107071501.831502,86685641.025641,83.539764,1,2,1,2,2,40.000000
2025-04-17 20:22:54.810,0.749235865322689,0.5976689373587444,0,0.7842386462918437,0.1199703101366344,0.6324158347657968,0,0.6887977031401488,0.1259877157144987,0.6127299822951883,0,0.8449741944524066,0.9103041004647916,0.7649324074634903,0,0.9959739024732016,0.5468678418478014,0.3906549379282749,0,0.4315837095782663,694.2490842490843,855.0183150183151,1261.172161172161,724.0659340659341,724.4688644688645,0.344055,0.195923,0.928467,-0.306549,-1.443024,-0.314026,602783.882784,107223809.523810,86862124.542125,83.539764,1,2,1,2,2,40.000000
2025-04-17 20:22:55.128,,,,,,,,,,,,,,,,,,,,,,,,,,,,,,,,,,,,,,,,,,/muse/elements/blink
2025-04-17 20:22:55.811,0.749235865322689,0.5976689373587444,0,0.7842386462918437,0.1199703101366344,0.6324158347657968,0,0.6887977031401488,0.1259877157144987,0.6127299822951883,0,0.8449741944524066,0.9103041004647916,0.7649324074634903,0,0.9959739024732016,0.5468678418478014,0.3906549379282749,0,0.4315837095782663,763.956043956044,826.8131868131868,971.0622710622711,759.1208791208792,638.2417582417582,0.344055,0.197205,0.927002,1.084137,-1.308441,0.979462,596336.996337,107384981.684982,86642930.402930,83.539764,1,2,1,2,2,40.000000
2025-04-17 20:22:56.809,0.749235865322689,0.5976689373587444,0,0.7842386462918437,0.1199703101366344,0.6324158347657968,0,0.6887977031401488,0.1259877157144987,0.6127299822951883,0,0.8449741944524066,0.9103041004647916,0.7649324074634903,0,0.9959739024732016,0.5468678418478014,0.3906549379282749,0,0.4315837095782663,813.1135531135532,804.2490842490843,893.6996336996338,818.3516483516484,571.3553113553114,0.344543,0.182312,0.929871,0.568237,-1.241150,0.097198,597948.717949,106866813.186813,86161025.641026,80.477554,1,2,4,4,2,40.000000
2025-04-17 20:22:57.581,,,,,,,,,,,,,,,,,,,,,,,,,,,,,,,,,,,,,,,,,,/muse/elements/blink
2025-04-17 20:22:57.813,1.035761965141406,0.5976689373587444,0,1.124981636623591,0.7044487159581876,0.6324158347657968,0,0.8307130435063518,0.6458576012766906,0.6127299822951883,0,1.096532353267198,0.98374355776915,0.7649324074634903,0,1.139250610630099,0.4394629959281396,0.3906549379282749,0,0.6164497026266591,861.4652014652015,795.7875457875458,848.974358974359,834.0659340659341,686.1904761904763,0.345398,0.190186,0.925842,0.396271,-1.248627,-0.628052,604395.604396,107399487.179487,86531721.611722,78.892998,1,1,4,2,1,40.000000
2025-04-17 20:22:58.809,1.109712252512988,0.5976689373587444,0,1.175374045842684,0.759670131311913,0.6324158347657968,0,0.8420314209954977,0.6155242390666885,0.6127299822951883,0,1.043397608176085,0.9974220975504284,0.7649324074634903,0,1.121610079743269,0.4426723531545818,0.3906549379282749,0,0.5507844786026866,788.1318681318681,784.9084249084249,702.7106227106227,796.5934065934066,579.8168498168499,0.352051,0.189209,0.930725,-0.007477,-2.542114,-0.149536,611648.351648,108167472.527473,87510842.490842,86.883202,1,1,1,2,1,40.000000
2025-04-17 20:22:59.815,1.109712252512988,0.5976689373587444,0,1.175374045842684,0.759670131311913,0.6324158347657968,0,0.8420314209954977,0.6155242390666885,0.6127299822951883,0,1.043397608176085,0.9974220975504284,0.7649324074634903,0,1.121610079743269,0.4426723531545818,0.3906549379282749,0,0.5507844786026866,782.4908424908425,792.5641025641025,960.989010989011,792.967032967033,563.2967032967033,0.347290,0.188538,0.923401,0.456085,-1.046753,0.134583,608424.908425,108374578.754579,87509230.769231,87.190071,1,1,1,2,1,40.000000
2025-04-17 20:23:00.809,,,,,,,,,,,,,,,,,,,,,,,,,,,,,,,,,,,,,,,,,,/muse/elements/blink
2025-04-17 20:23:00.810,0.7891755724269489,0.5976689373587444,0,0.8307409106230945,0.8761025984073469,0.6324158347657968,0,0.8247319703021965,1.139179373018311,0.6127299822951883,0,1.110072720891637,0.9529802530126563,0.7649324074634903,0,0.9789322965146992,0.7237023603418881,0.3906549379282749,0,0.653169023733137,839.7069597069598,719.6336996336996,758.7179487179487,834.0659340659341,805.8608058608058,0.349548,0.182617,0.926758,0.889740,-1.547699,0.164490,613260.073260,108409230.769231,87229597.069597,90.060577,1,1,1,2,1,40.000000
2025-04-17 20:23:01.809,0.6649862457707728,0.5976689373587444,0,0.6961438388706299,0.7194338404971207,0.6324158347657968,0,0.6425683157089631,0.9948368486761487,0.6127299822951883,0,0.8251069726589143,0.8037473774678505,0.7649324074634903,0,0.7627341936633963,0.5819472053454383,0.3906549379282749,0,0.632509983002617,861.0622710622711,713.1868131868132,760.7326007326008,833.2600732600733,662.014652014652,0.343811,0.177368,0.929565,0.291595,-0.104675,-1.592560,618095.238095,108255311.355311,86844395.604396,90.060577,1,1,4,2,1,40.000000
2025-04-17 20:23:01.834,,,,,,,,,,,,,,,,,,,,,,,,,,,,,,,,,,,,,,,,,,/muse/elements/blink
2025-04-17 20:23:02.809,0.6649862457707728,0.5976689373587444,0,0.6961438388706299,0.7194338404971207,0.6324158347657968,0,0.6425683157089631,0.9948368486761487,0.6127299822951883,0,0.8251069726589143,0.8037473774678505,0.7649324074634903,0,0.7627341936633963,0.5819472053454383,0.3906549379282749,0,0.632509983002617,797.3992673992674,811.5018315018315,744.2124542124542,827.2161172161173,718.021978021978,0.361450,0.194214,0.921021,0.583191,-2.086029,-0.142059,592307.692308,108273846.153846,87132893.772894,88.262268,1,1,1,2,1,40.000000
2025-04-17 20:23:03.809,0.6649862457707728,0.5976689373587444,0,0.6961438388706299,0.7194338404971207,0.6324158347657968,0,0.6425683157089631,0.9948368486761487,0.6127299822951883,0,0.8251069726589143,0.8037473774678505,0.7649324074634903,0,0.7627341936633963,0.5819472053454383,0.3906549379282749,0,0.632509983002617,825.2014652014652,811.9047619047619,778.4615384615385,799.0109890109891,707.5457875457876,0.351013,0.195740,0.930298,0.388794,-1.338348,-0.351410,596336.996337,108215018.315018,86900805.860806,87.052948,1,2,1,2,2,40.000000
2025-04-17 20:23:04.809,1.037156114309932,0.5976689373587444,0,1.153070963460475,0.5094569550355252,0.6324158347657968,0,0.5485834684921076,0.6395450454525826,0.6127299822951883,0,1.027013426488102,0.8950065540261629,0.7649324074634903,0,0.8898895325898698,0.5036462329739987,0.3906549379282749,0,0.7224634156472051,788.1318681318681,763.956043956044,799.0109890109891,781.2820512820513,724.0659340659341,0.347351,0.196106,0.925537,0.740204,-1.510315,0.500946,598754.578755,107976483.516484,86541391.941392,85.004021,1,1,1,4,1,40.000000
2025-04-17 20:23:05.808,0.8411694321714605,0.5976689373587444,0,0.8692287808992641,0.597189946410921,0.6324158347657968,0,0.5240985601393205,0.7372212196237539,0.6127299822951883,0,1.06749030563506,0.8044951379864166,0.7649324074634903,0,0.9032515837965098,0.4693730541923016,0.3906549379282749,0,0.5876603050308543,716.007326007326,755.0915750915751,736.1538461538462,724.4688644688645,623.7362637362637,0.351868,0.193298,0.930725,0.097198,-1.465454,-0.029907,599560.439560,107787912.087912,86235164.835165,85.004021,1,1,1,1,1,40.000000
2025-04-17 20:23:05.911,,,,,,,,,,,,,,,,,,,,,,,,,,,,,,,,,,,,,,,,,,/muse/elements/blink
2025-04-17 20:23:06.809,0.5510175521117208,0.5976689373587444,0,0.5990728856788821,0.5111835917147514,0.6324158347657968,0,0.4324341211450762,0.6725501230559816,0.6127299822951883,0,0.7058260303824011,0.8294260285820139,0.7649324074634903,0,1.002148071694226,0.3463145144842608,0.3906549379282749,0,0.3997009179921711,794.5787545787546,813.1135531135532,748.2417582417582,799.4139194139194,707.5457875457876,0.353638,0.196533,0.925293,0.927124,-1.435547,0.493469,593113.553114,107764542.124542,86034505.494505,85.066673,1,1,1,1,1,40.000000
2025-04-17 20:23:07.809,1.401287623598191,0.5976689373587444,0,1.330862153254031,0.8435731920984259,0.6324158347657968,0,0.8909429967545508,0.389440596758703,0.6127299822951883,0,0.6756253135148645,0.9169193339099228,0.7649324074634903,0,0.9244351358299296,0.398603018579501,0.3906549379282749,0,0.5355140944141383,842.9304029304029,812.3076923076924,881.2087912087912,808.6813186813187,579.4139194139194,0.357056,0.194031,0.921631,0.530853,-1.555176,0.171967,591501.831502,107841098.901099,85972454.212454,85.153168,1,1,1,1,1,40.000000
2025-04-17 20:23:08.809,1.12071591944777,0.5976689373587444,0,0.9717535730158408,0.5824144828894934,0.6324158347657968,0,0.5519253788112414,0.7430961240350901,0.6127299822951883,0,0.8665915780527511,0.9004141783126069,0.7649324074634903,0,1.127354248783201,0.410313043960719,0.3906549379282749,0,0.5686052499989948,737.7655677655678,754.6886446886447,1182.600732600733,751.0622710622711,510.5128205128206,0.364624,0.197449,0.921082,0.142059,-1.480408,-0.762634,590695.970696,107795164.835165,85583223.443223,85.153168,1,1,1,1,1,40.000000
2025-04-17 20:23:09.659,,,,,,,,,,,,,,,,,,,,,,,,,,,,,,,,,,,,,,,,,,/muse/elements/blink
2025-04-17 20:23:09.808,0.6747112442113378,0.5976689373587444,0,0.3451056591016476,0.1734539033816959,0.6324158347657968,0,-0.1274960832627345,0.5446391848860324,0.6127299822951883,0,0.7369708653217681,0.7214100898109203,0.7649324074634903,0,1.073059755602904,0.4613612802912748,0.3906549379282749,0,0.4680919395749792,796.1904761904763,856.6300366300367,848.5714285714286,806.6666666666667,610.4395604395604,0.359741,0.200378,0.918030,0.740204,-1.884155,0.014954,592307.692308,107910402.930403,85571135.531136,84.862022,1,1,1,1,1,40.000000
2025-04-17 20:23:10.045,,,,,,,,,,,,,,,,,,,,,,,,,,,,,,,,,,,,,,,,,,/muse/elements/blink
2025-04-17 20:23:10.666,,,,,,,,,,,,,,,,,,,,,,,,,,,,,,,,,,,,,,,,,,/muse/elements/blink
2025-04-17 20:23:10.809,0.6747112442113378,0.5976689373587444,0,0.3451056591016476,0.1734539033816959,0.6324158347657968,0,-0.1274960832627345,0.5446391848860324,0.6127299822951883,0,0.7369708653217681,0.7214100898109203,0.7649324074634903,0,1.073059755602904,0.4613612802912748,0.3906549379282749,0,0.4680919395749792,792.5641025641025,844.5421245421246,873.5531135531136,814.3223443223443,592.7106227106227,0.369812,0.184265,0.920959,0.957031,-1.719666,0.284119,591501.831502,107532454.212454,85208498.168498,83.669273,1,1,1,1,1,40.000000
2025-04-17 20:23:11.781,,,,,,,,,,,,,,,,,,,,,,,,,,,,,,,,,,,,,,,,,,/muse/elements/blink
2025-04-17 20:23:11.811,0.6747112442113378,0.5976689373587444,0,0.3451056591016476,0.1734539033816959,0.6324158347657968,0,-0.1274960832627345,0.5446391848860324,0.6127299822951883,0,0.7369708653217681,0.7214100898109203,0.7649324074634903,0,1.073059755602904,0.4613612802912748,0.3906549379282749,0,0.4680919395749792,868.7179487179487,850.989010989011,750.6593406593407,847.7655677655678,869.5238095238095,0.359985,0.187683,0.922791,0.613098,-1.951447,-0.284119,593919.413919,107483296.703297,85315677.655678,83.669273,1,2,1,1,2,40.000000
2025-04-17 20:23:12.293,,,,,,,,,,,,,,,,,,,,,,,,,,,,,,,,,,,,,,,,,,/muse/elements/blink
2025-04-17 20:23:12.720,,,,,,,,,,,,,,,,,,,,,,,,,,,,,,,,,,,,,,,,,,/muse/elements/blink
2025-04-17 20:23:12.815,0.6747112442113378,0.5976689373587444,0,0.3451056591016476,0.1734539033816959,0.6324158347657968,0,-0.1274960832627345,0.5446391848860324,0.6127299822951883,0,0.7369708653217681,0.7214100898109203,0.7649324074634903,0,1.073059755602904,0.4613612802912748,0.3906549379282749,0,0.4680919395749792,773.6263736263736,828.8278388278388,717.6190476190476,792.5641025641025,678.9377289377289,0.371277,0.189209,0.924683,0.785065,-2.422485,0.246735,594725.274725,107619487.179487,85330183.150183,83.398811,1,2,1,1,2,40.000000
2025-04-17 20:23:13.809,0.6747112442113378,0.5976689373587444,0,0.3451056591016476,0.1734539033816959,0.6324158347657968,0,-0.1274960832627345,0.5446391848860324,0.6127299822951883,0,0.7369708653217681,0.7214100898109203,0.7649324074634903,0,1.073059755602904,0.4613612802912748,0.3906549379282749,0,0.4680919395749792,788.1318681318681,965.4212454212454,839.3040293040293,809.8901098901099,714.3956043956044,0.366333,0.191345,0.927368,0.059814,-1.532745,-0.463562,596336.996337,107542124.542125,85169816.849817,79.839989,1,2,1,1,2,40.000000
2025-04-17 20:23:13.939,,,,,,,,,,,,,,,,,,,,,,,,,,,,,,,,,,,,,,,,,,/muse/elements/blink
2025-04-17 20:23:14.130,,,,,,,,,,,,,,,,,,,,,,,,,,,,,,,,,,,,,,,,,,/muse/elements/jaw_clench
2025-04-17 20:23:14.557,,,,,,,,,,,,,,,,,,,,,,,,,,,,,,,,,,,,,,,,,,/muse/elements/blink
2025-04-17 20:23:14.809,0.6747112442113378,0.5976689373587444,0,0.3451056591016476,0.1734539033816959,0.6324158347657968,0,-0.1274960832627345,0.5446391848860324,0.6127299822951883,0,0.7369708653217681,0.7214100898109203,0.7649324074634903,0,1.073059755602904,0.4613612802912748,0.3906549379282749,0,0.4680919395749792,803.4432234432235,934.7985347985348,863.4798534798535,788.9377289377289,688.6080586080586,0.373657,0.187500,0.918579,0.037384,-1.300964,-1.054230,591501.831502,107467179.487179,84828131.868132,78.633125,1,2,4,2,2,40.000000
2025-04-17 20:23:14.836,,,,,,,,,,,,,,,,,,,,,,,,,,,,,,,,,,,,,,,,,,/muse/elements/jaw_clench
2025-04-17 20:23:14.943,,,,,,,,,,,,,,,,,,,,,,,,,,,,,,,,,,,,,,,,,,/muse/elements/blink
2025-04-17 20:23:15.822,0.6747112442113378,0.5976689373587444,0,0.3451056591016476,0.1734539033816959,0.6324158347657968,0,-0.1274960832627345,0.5446391848860324,0.6127299822951883,0,0.7369708653217681,0.7214100898109203,0.7649324074634903,0,1.073059755602904,0.4613612802912748,0.3906549379282749,0,0.4680919395749792,858.2417582417582,1101.208791208791,1075.421245421245,879.5970695970697,647.5091575091575,0.363098,0.187195,0.925598,0.224304,-1.039276,-1.211243,590695.970696,107326153.846154,84523516.483516,79.645828,1,2,2,2,2,40.000000
2025-04-17 20:23:15.848,,,,,,,,,,,,,,,,,,,,,,,,,,,,,,,,,,,,,,,,,,/muse/elements/blink
2025-04-17 20:23:16.131,,,,,,,,,,,,,,,,,,,,,,,,,,,,,,,,,,,,,,,,,,/muse/elements/blink
2025-04-17 20:23:16.479,,,,,,,,,,,,,,,,,,,,,,,,,,,,,,,,,,,,,,,,,,/muse/elements/blink
2025-04-17 20:23:16.810,0.6747112442113378,0.5976689373587444,0,0.3451056591016476,0.1734539033816959,0.6324158347657968,0,-0.1274960832627345,0.5446391848860324,0.6127299822951883,0,0.7369708653217681,0.7214100898109203,0.7649324074634903,0,1.073059755602904,0.4613612802912748,0.3906549379282749,0,0.4680919395749792,657.5824175824176,876.3736263736264,863.4798534798535,662.4175824175825,595.934065934066,0.364624,0.189087,0.921082,0.919647,-1.241150,0.545807,594725.274725,107278608.058608,84526739.926740,81.981789,1,2,2,2,2,40.000000
2025-04-17 20:23:16.992,,,,,,,,,,,,,,,,,,,,,,,,,,,,,,,,,,,,,,,,,,/muse/elements/blink
2025-04-17 20:23:17.808,0.6747112442113378,0.5976689373587444,0,0.3451056591016476,0.1734539033816959,0.6324158347657968,0,-0.1274960832627345,0.5446391848860324,0.6127299822951883,0,0.7369708653217681,0.7214100898109203,0.7649324074634903,0,1.073059755602904,0.4613612802912748,0.3906549379282749,0,0.4680919395749792,794.981684981685,945.2747252747253,666.4468864468864,781.2820512820513,698.6813186813187,0.367798,0.191895,0.928589,0.560760,-1.906586,-0.284119,596336.996337,107555018.315018,85082783.882784,81.173531,1,2,2,2,2,40.000000
2025-04-17 20:23:18.809,0.2687370029955628,0.5976689373587444,0,0.1866691068312282,0.3432544870128046,0.6324158347657968,0,0.220045143300317,0.33991977734808,0.6127299822951883,0,1.155781103662567,0.6525886536532173,0.7649324074634903,0,1.017321355121083,0.6200138515324972,0.3906549379282749,0,0.7274828286367536,811.5018315018315,842.9304029304029,852.6007326007326,805.0549450549451,600.3663003663004,0.371704,0.189697,0.925659,0.164490,-1.428070,-0.598145,595531.135531,107659780.219780,84967545.787546,80.887321,1,1,2,2,1,40.000000
2025-04-17 20:23:19.808,0.0770188469779446,0.5976689373587444,0,0.09570129891242994,0.1327723316749189,0.6324158347657968,0,0.2530400243278876,0.5339305325274445,0.6127299822951883,0,1.16062742218799,0.6212515373091478,0.7649324074634903,0,0.9480838951961413,0.5841074681777466,0.3906549379282749,0,0.7079522248990585,787.7289377289378,936.8131868131868,902.5641025641025,799.8168498168499,568.5347985347986,0.361938,0.187927,0.918213,0.381317,-1.188812,-0.672913,596336.996337,107659780.219780,85177069.597070,80.636864,1,1,1,2,1,40.000000
2025-04-17 20:23:20.809,0.6935480275698042,0.5976689373587444,0,0.6366149748807841,0.4585343551402405,0.6324158347657968,0,0.5953579602391501,0.8052847055108748,0.6127299822951883,0,1.01424901672677,0.673535294414443,0.7649324074634903,0,0.8722845365966855,0.5579421764304295,0.3906549379282749,0,0.6305631929195651,774.0293040293041,785.7142857142858,680.5494505494506,794.981684981685,877.985347985348,0.373169,0.188660,0.925720,0.829926,-1.540222,0.254211,601978.021978,107802417.582418,85400293.040293,80.636864,1,1,4,2,1,40.000000
2025-04-17 20:23:21.349,,,,,,,,,,,,,,,,,,,,,,,,,,,,,,,,,,,,,,,,,,/muse/elements/blink
2025-04-17 20:23:21.809,0.6944539262172938,0.5976689373587444,0,0.7193440153342421,0.4461404430454394,0.6324158347657968,0,0.6107146158814487,0.7652430767627366,0.6127299822951883,0,0.7405307103124218,0.7277536373257875,0.7649324074634903,0,0.883372827659247,0.6555915954032117,0.3906549379282749,0,0.5381260012516907,813.5164835164835,908.2051282051282,653.5531135531136,813.5164835164835,540.3296703296703,0.368713,0.183777,0.920532,0.523376,-1.398163,-0.388794,604395.604396,107996630.036630,85638827.838828,79.549332,1,1,1,2,1,40.000000
2025-04-17 20:23:22.808,0.3794495854125659,0.5976689373587444,0,0.4092660746730764,0.1476475703525492,0.6324158347657968,0,0.3101756158673368,0.400671277521904,0.6127299822951883,0,0.5010993391567661,0.8154243140751867,0.7649324074634903,0,0.850224054706195,0.7708446347181609,0.3906549379282749,0,0.5637651756189206,767.985347985348,866.7032967032967,762.7472527472528,757.9120879120879,612.8571428571429,0.366028,0.188599,0.924316,0.665436,-1.271057,-0.396271,605201.465201,108022417.582418,85714578.754579,79.365402,1,1,1,2,1,40.000000
2025-04-17 20:23:23.808,0.441810769739213,0.5976689373587444,0,0.6182180586064228,0.5557025777950394,0.6324158347657968,0,0.6681403071150052,0.5660922705289918,0.6127299822951883,0,0.9746002601834852,0.7440625845500221,0.7649324074634903,0,0.9083001555131132,0.3761683946454349,0.3906549379282749,0,0.609510363602741,765.5677655677656,854.2124542124542,753.0769230769231,784.1025641025641,795.7875457875458,0.368103,0.188416,0.920471,0.082245,-1.480408,-0.351410,601172.161172,107945860.805861,85341465.201465,77.759605,1,1,1,2,1,40.000000
2025-04-17 20:23:24.809,0.2139531802666048,0.5976689373587444,0,0.3044456137692964,0.4887334145222072,0.6324158347657968,0,0.623774641667672,0.5682248590686405,0.6127299822951883,0,1.093300288924938,0.6981921609062552,0.7649324074634903,0,0.9680835843514032,0.4480877061394345,0.3906549379282749,0,0.6466856966750583,817.1428571428571,907.3992673992674,1064.945054945055,807.4725274725275,604.7985347985348,0.367310,0.189026,0.924744,0.299072,-1.659851,0.037384,599560.439560,107857216.117216,85026373.626374,77.759605,1,1,1,2,1,40.000000
2025-04-17 20:23:25.818,0.1405265908007813,0.5976689373587444,0,0.1793590692555706,0.5465558441146552,0.6324158347657968,0,0.4085448817350063,0.9034304742482577,0.6127299822951883,0,0.9974199691882731,0.7682646655298178,0.7649324074634903,0,0.8781299891127651,0.5175640661454669,0.3906549379282749,0,0.6163276659139594,790.5494505494506,865.8974358974359,1015.384615384615,793.7728937728938,707.5457875457876,0.370483,0.187134,0.919861,0.471039,-1.286011,0.209351,603589.743590,107776630.036630,85022344.322344,77.759605,1,1,1,2,1,40.000000
2025-04-17 20:23:26.728,,,,,,,,,,,,,,,,,,,,,,,,,,,,,,,,,,,,,,,,,,/muse/elements/blink
2025-04-17 20:23:26.809,0.2625173703432847,0.5976689373587444,0,-0.01764784657617181,0.1865552639413542,0.6324158347657968,0,0.403787369979159,0.8564693847581979,0.6127299822951883,0,0.9371785001114932,0.6967761973374914,0.7649324074634903,0,0.7419764102514037,0.3392943773701577,0.3906549379282749,0,0.5694527532002948,749.047619047619,706.7399267399268,605.6043956043957,777.6556776556777,668.8644688644689,0.361450,0.187256,0.928772,1.226196,-1.495361,0.029907,601978.021978,107902344.322344,84819267.399267,77.759605,1,1,2,2,1,40.000000
2025-04-17 20:23:27.350,,,,,,,,,,,,,,,,,,,,,,,,,,,,,,,,,,,,,,,,,,/muse/elements/blink
2025-04-17 20:23:27.809,0.2695393610993141,0.5976689373587444,0,-0.1020032109509498,-0.3840571988269489,0.6324158347657968,0,0.3148580161502988,0.3649941458449376,0.6127299822951883,0,0.4397582758757367,0.637952935419587,0.7649324074634903,0,0.7965903484073161,0.3436443583008973,0.3906549379282749,0,0.4944348098378094,833.2600732600733,776.4468864468864,983.1501831501831,825.2014652014652,602.7838827838827,0.371765,0.187744,0.921204,0.702820,-1.457977,0.321503,597948.717949,107502637.362637,84307545.787546,77.759605,1,1,1,4,1,40.000000
2025-04-17 20:23:27.861,,,,,,,,,,,,,,,,,,,,,,,,,,,,,,,,,,,,,,,,,,/muse/elements/blink
2025-04-17 20:23:28.812,0.2695393610993141,0.5976689373587444,0,-0.1020032109509498,-0.3840571988269489,0.6324158347657968,0,0.3148580161502988,0.3649941458449376,0.6127299822951883,0,0.4397582758757367,0.637952935419587,0.7649324074634903,0,0.7965903484073161,0.3436443583008973,0.3906549379282749,0,0.4944348098378094,773.2234432234433,886.8498168498169,466.1904761904762,768.3882783882784,694.6520146520147,0.362610,0.188782,0.921265,0.441132,-2.429962,-0.014954,596336.996337,107405934.065934,84474358.974359,79.536064,1,1,2,4,1,40.000000
2025-04-17 20:23:29.080,,,,,,,,,,,,,,,,,,,,,,,,,,,,,,,,,,,,,,,,,,/muse/elements/blink
2025-04-17 20:23:29.808,0.2695393610993141,0.5976689373587444,0,-0.1020032109509498,-0.3840571988269489,0.6324158347657968,0,0.3148580161502988,0.3649941458449376,0.6127299822951883,0,0.4397582758757367,0.637952935419587,0.7649324074634903,0,0.7965903484073161,0.3436443583008973,0.3906549379282749,0,0.4944348098378094,766.7765567765568,884.0293040293041,861.0622710622711,777.6556776556777,717.2161172161173,0.377563,0.193054,0.913696,0.463562,-1.943970,0.209351,591501.831502,107506666.666667,84617802.197802,81.892281,1,2,2,4,2,40.000000
2025-04-17 20:23:30.809,0.9154091641073329,0.5976689373587444,0,0.8696458114959621,0.8479218146250356,0.6324158347657968,0,0.7683965742036907,0.7165632981891077,0.6127299822951883,0,0.9442751599283484,0.5357524799890584,0.7649324074634903,0,0.922864085332282,0.2014580626846677,0.3906549379282749,0,0.5003634457576643,747.4358974358975,1114.102564102564,901.7582417582418,762.7472527472528,549.5970695970697,0.371948,0.192627,0.917358,0.373840,-1.300964,-0.261688,589084.249084,107501831.501832,84424395.604396,83.106041,1,1,2,4,1,40.000000
2025-04-17 20:23:31.195,,,,,,,,,,,,,,,,,,,,,,,,,,,,,,,,,,,,,,,,,,/muse/elements/blink
2025-04-17 20:23:31.808,0.8015925475427567,0.5976689373587444,0,0.8262752351539362,0.8821065513645701,0.6324158347657968,0,0.8964914692344343,0.715091223526551,0.6127299822951883,0,0.9325131590859196,0.5277270000984161,0.7649324074634903,0,0.9363856244612397,0.1996437550146735,0.3906549379282749,0,0.5050366078564414,818.3516483516484,1635.897435897436,968.6446886446887,804.6520146520147,604.3956043956044,0.368225,0.188293,0.922485,0.568237,-1.562653,-1.024323,592307.692308,107638021.978022,84530769.230769,83.139015,1,1,4,4,1,40.000000
2025-04-17 20:23:32.811,0.7190886047794899,0.5976689373587444,0,0.7749482851858234,0.9386742378720656,0.6324158347657968,0,0.9966302176791606,0.7137256771529128,0.6127299822951883,0,0.9048598767151494,0.561892365967559,0.7649324074634903,0,0.9371853335134797,0.2135098081447792,0.3906549379282749,0,0.485524169715111,830.0366300366301,788.9377289377289,1036.739926739927,807.0695970695971,863.8827838827839,0.370911,0.183594,0.917419,0.418701,-1.749573,0.583191,589084.249084,107391428.571429,84143956.043956,83.510963,1,1,4,4,1,40.000000
2025-04-17 20:23:32.825,,,,,,,,,,,,,,,,,,,,,,,,,,,,,,,,,,,,,,,,,,/muse/elements/blink
2025-04-17 20:23:33.531,,,,,,,,,,,,,,,,,,,,,,,,,,,,,,,,,,,,,,,,,,/muse/elements/blink
2025-04-17 20:23:33.809,0.7190886047794899,0.5976689373587444,0,0.7749482851858234,0.9386742378720656,0.6324158347657968,0,0.9966302176791606,0.7137256771529128,0.6127299822951883,0,0.9048598767151494,0.561892365967559,0.7649324074634903,0,0.9371853335134797,0.2135098081447792,0.3906549379282749,0,0.485524169715111,806.2637362637363,1157.216117216117,1015.384615384615,793.7728937728938,545.5677655677656,0.373230,0.190674,0.917297,0.545807,-1.689758,-0.157013,591501.831502,107437362.637363,84255164.835165,86.036682,1,2,4,4,2,40.000000
2025-04-17 20:23:34.236,,,,,,,,,,,,,,,,,,,,,,,,,,,,,,,,,,,,,,,,,,/muse/elements/blink
2025-04-17 20:23:34.809,0.7190886047794899,0.5976689373587444,0,0.7749482851858234,0.9386742378720656,0.6324158347657968,0,0.9966302176791606,0.7137256771529128,0.6127299822951883,0,0.9048598767151494,0.561892365967559,0.7649324074634903,0,0.9371853335134797,0.2135098081447792,0.3906549379282749,0,0.485524169715111,813.5164835164835,1265.604395604396,601.978021978022,781.2820512820513,648.3150183150183,0.371521,0.188354,0.913269,0.814972,-1.891632,-0.112152,595531.135531,107692014.652015,84613772.893773,84.255775,1,2,4,4,2,40.000000
2025-04-17 20:23:35.809,0.7190886047794899,0.5976689373587444,0,0.7749482851858234,0.9386742378720656,0.6324158347657968,0,0.9966302176791606,0.7137256771529128,0.6127299822951883,0,0.9048598767151494,0.561892365967559,0.7649324074634903,0,0.9371853335134797,0.2135098081447792,0.3906549379282749,0,0.485524169715111,788.1318681318681,934.7985347985348,1080.25641025641,799.0109890109891,652.3443223443223,0.372375,0.185181,0.919312,0.366364,-1.457977,-0.037384,590695.970696,107258461.538462,84077069.597070,83.904724,1,2,4,4,2,40.000000
2025-04-17 20:23:36.809,0.6241828774497344,0.5976689373587444,0,0.5904670601379912,0.4807299516551669,0.6324158347657968,0,0.4937110157434743,0.5641031193885986,0.6127299822951883,0,0.805947940048526,0.5672632979418424,0.7649324074634903,0,0.6719561876123267,0.3202980390643732,0.3906549379282749,0,0.3750053078088979,743.4065934065934,1370.3663003663,960.5860805860806,766.3736263736264,531.8681318681319,0.368652,0.193237,0.922485,0.403748,-1.323395,-0.321503,591501.831502,107314065.934066,84355897.435897,84.421791,1,1,4,2,1,40.000000
2025-04-17 20:23:37.809,0.4275444812511837,0.5976689373587444,0,0.2291786297125708,0.4087360993975167,0.6324158347657968,0,0.3985094578268183,0.5728645115572114,0.6127299822951883,0,0.9324306503883859,0.6054643774236755,0.7649324074634903,0,0.7824418301412219,0.2494038855902092,0.3906549379282749,0,0.3933079735488528,773.6263736263736,567.7289377289377,1024.652014652015,784.5054945054945,770.4029304029305,0.375305,0.192261,0.929993,0.971985,-2.317810,0.418701,590695.970696,107476849.816850,84600073.260073,81.654846,1,1,4,2,1,40.000000
2025-04-17 20:23:38.808,0.4044754286138567,0.5976689373587444,0,0.1020507651254628,0.4620709917420285,0.6324158347657968,0,0.2561374867751754,0.5964543798352909,0.6127299822951883,0,0.9651912175726819,0.6310628263180094,0.7649324074634903,0,0.73195416045828,0.2239133275070239,0.3906549379282749,0,0.5163522890774276,853.4065934065934,888.8644688644689,960.5860805860806,863.4798534798535,684.1758241758242,0.370178,0.189575,0.922241,0.568237,-1.054230,-0.351410,593113.553114,107512307.692308,84614578.754579,80.396683,1,1,4,2,1,40.000000
2025-04-17 20:23:38.824,,,,,,,,,,,,,,,,,,,,,,,,,,,,,,,,,,,,,,,,,,/muse/elements/blink
2025-04-17 20:23:39.102,,,,,,,,,,,,,,,,,,,,,,,,,,,,,,,,,,,,,,,,,,/muse/elements/blink
2025-04-17 20:23:39.808,0.5301408294871394,0.5976689373587444,0,0.2339417354958185,0.2599220885785998,0.6324158347657968,0,-0.1099560838965414,0.4056990308471654,0.6127299822951883,0,0.6241830346899458,0.7260287435194382,0.7649324074634903,0,0.6448201454336813,0.1865598446146546,0.3906549379282749,0,0.5016950816190895,764.3589743589744,1153.589743589744,951.3186813186813,754.2857142857143,537.9120879120879,0.382874,0.215454,0.905762,0.942078,-3.215027,1.929016,562490.842491,107647692.307692,84664542.124542,81.206131,1,1,4,2,1,40.000000
2025-04-17 20:23:40.808,1.004978172052134,0.5976689373587444,0,0.2339417354958185,0.8221535814824766,0.6324158347657968,0,-0.1099560838965414,1.054483788512271,0.6127299822951883,0,0.6241830346899458,1.149303102219931,0.7649324074634903,0,0.6448201454336813,0.7842196413283515,0.3906549379282749,0,0.5016950816190895,806.6666666666667,1064.139194139194,1041.172161172161,807.4725274725275,686.1904761904763,0.339294,0.204895,0.930237,0.605621,-1.697235,-1.054230,586666.666667,107298754.578755,84167326.007326,81.273613,1,1,4,2,1,40.000000
2025-04-17 20:23:41.808,1.077229920713253,0.5976689373587444,0,0.7882543038556475,0.8986273026352205,0.6324158347657968,0,0.7564957291023562,1.066049142645245,0.6127299822951883,0,1.232179931385627,1.038015386064574,0.7649324074634903,0,1.109985874706582,0.6731923176601293,0.3906549379282749,0,0.9630979279097431,781.2820512820513,812.3076923076924,875.5677655677656,770.4029304029305,788.5347985347986,0.370300,0.224426,0.914307,0.022430,-0.807495,-1.143951,568131.868132,107198021.978022,83927985.347985,81.273613,1,1,4,2,1,40.000000
2025-04-17 20:23:42.347,,,,,,,,,,,,,,,,,,,,,,,,,,,,,,,,,,,,,,,,,,/muse/elements/blink
2025-04-17 20:23:42.807,1.094019901974065,0.5976689373587444,0,0.9369506941425908,0.9677229293576244,0.6324158347657968,0,0.952066283295471,0.6281075570788719,0.6127299822951883,0,1.366806544153886,0.6891144175448151,0.7649324074634903,0,1.063557108311021,0.2980141294039782,0.3906549379282749,0,0.7548754821788131,774.8351648351648,1241.025641025641,1055.274725274725,792.967032967033,632.1978021978022,0.356140,0.233093,0.905762,0.366364,-4.433746,1.757050,568937.728938,107535677.655678,84562197.802198,81.133690,1,1,4,2,1,40.000000
2025-04-17 20:23:43.285,,,,,,,,,,,,,,,,,,,,,,,,,,,,,,,,,,,,,,,,,,/muse/elements/blink
2025-04-17 20:23:43.808,1.094019901974065,0.5976689373587444,0,0.8391056436189198,0.9677229293576244,0.6324158347657968,0,1.028840071185526,0.6281075570788719,0.6127299822951883,0,1.301721711650722,0.6891144175448151,0.7649324074634903,0,1.077586345774774,0.2980141294039782,0.3906549379282749,0,0.8391549825587817,873.5531135531136,1542.417582417582,962.1978021978023,846.5567765567765,740.5860805860806,0.359985,0.219299,0.920593,0.411224,-0.777588,0.530853,587472.527473,107838681.318681,85204468.864469,81.116631,1,1,4,2,1,40.000000
2025-04-17 20:23:43.881,,,,,,,,,,,,,,,,,,,,,,,,,,,,,,,,,,,,,,,,,,/muse/elements/blink
2025-04-17 20:23:44.500,,,,,,,,,,,,,,,,,,,,,,,,,,,,,,,,,,,,,,,,,,/muse/elements/blink
2025-04-17 20:23:44.808,1.094019901974065,0.5976689373587444,0,0.8391056436189198,0.9677229293576244,0.6324158347657968,0,1.028840071185526,0.6281075570788719,0.6127299822951883,0,1.301721711650722,0.6891144175448151,0.7649324074634903,0,1.077586345774774,0.2980141294039782,0.3906549379282749,0,0.8391549825587817,823.1868131868132,889.6703296703297,844.5421245421246,799.0109890109891,716.8131868131868,0.362244,0.217834,0.921875,0.508423,-1.899109,-0.269165,590695.970696,108320586.080586,85822564.102564,81.116631,1,1,4,2,1,40.000000
2025-04-17 20:23:45.812,1.094019901974065,0.5976689373587444,0,0.8391056436189198,0.9677229293576244,0.6324158347657968,0,1.028840071185526,0.6281075570788719,0.6127299822951883,0,1.301721711650722,0.6891144175448151,0.7649324074634903,0,1.077586345774774,0.2980141294039782,0.3906549379282749,0,0.8391549825587817,780.4761904761905,922.7106227106227,571.3553113553114,789.7435897435897,570.952380952381,0.355408,0.221558,0.918518,0.411224,-0.770111,1.300964,585860.805861,107955531.135531,85318095.238095,81.116631,1,2,2,2,2,40.000000
2025-04-17 20:23:46.615,,,,,,,,,,,,,,,,,,,,,,,,,,,,,,,,,,,,,,,,,,/muse/elements/blink
2025-04-17 20:23:46.817,0.5826264782342201,0.5976689373587444,0,0.4095559833651138,0.2594172236375907,0.6324158347657968,0,0.2722402806394305,0.6408204577315062,0.6127299822951883,0,0.7965383782085891,0.6320818095729841,0.7649324074634903,0,0.719368347379632,0.4060562219543516,0.3906549379282749,0,0.5303180602461655,848.1684981684982,865.4945054945056,1256.739926739927,848.974358974359,884.4322344322345,0.364441,0.213318,0.920227,1.136475,-1.300964,-0.186920,593113.553114,107698461.538462,84884542.124542,81.116631,1,1,4,2,1,40.000000
2025-04-17 20:23:46.957,,,,,,,,,,,,,,,,,,,,,,,,,,,,,,,,,,,,,,,,,,/muse/elements/blink
2025-04-17 20:23:47.808,0.6413568279367771,0.5976689373587444,0,0.5986235508868698,0.3149528487771882,0.6324158347657968,0,0.3982234948212062,0.622555554742703,0.6127299822951883,0,0.5450480612394862,0.5299950086358657,0.7649324074634903,0,0.6630077516434665,0.1943168907709615,0.3906549379282749,0,0.3882325062944303,822.3809523809524,430.3296703296704,648.7179487179487,820.7692307692308,789.3406593406594,0.365356,0.206360,0.913086,0.583191,-1.854248,-0.186920,587472.527473,107522783.882784,84774139.194139,95.901695,1,1,2,2,1,40.000000
2025-04-17 20:23:48.438,,,,,,,,,,,,,,,,,,,,,,,,,,,,,,,,,,,,,,,,,,/muse/elements/blink
2025-04-17 20:23:48.810,0.6413568279367771,0.5976689373587444,0,0.5986235508868698,0.3149528487771882,0.6324158347657968,0,0.3982234948212062,0.622555554742703,0.6127299822951883,0,0.5450480612394862,0.5299950086358657,0.7649324074634903,0,0.6630077516434665,0.1943168907709615,0.3906549379282749,0,0.3882325062944303,764.7619047619048,78.97435897435898,1110.879120879121,767.5824175824176,616.8864468864469,0.366821,0.208862,0.906433,0.254211,-1.510315,0.157013,584249.084249,107355164.835165,84362344.322344,104.821602,1,1,4,4,1,40.000000
2025-04-17 20:23:49.057,,,,,,,,,,,,,,,,,,,,,,,,,,,,,,,,,,,,,,,,,,/muse/elements/blink
2025-04-17 20:23:49.814,0.6413568279367771,0.5976689373587444,0,0.5986235508868698,0.3149528487771882,0.6324158347657968,0,0.3982234948212062,0.622555554742703,0.6127299822951883,0,0.5450480612394862,0.5299950086358657,0.7649324074634903,0,0.6630077516434665,0.1943168907709615,0.3906549379282749,0,0.3882325062944303,824.7985347985348,780.4761904761905,520.989010989011,824.3956043956044,726.8864468864469,0.372070,0.209473,0.914246,0.500946,-1.674805,-0.134583,582637.362637,107313260.073260,84527545.787546,104.821602,1,2,4,4,2,40.000000
2025-04-17 20:23:50.593,,,,,,,,,,,,,,,,,,,,,,,,,,,,,,,,,,,,,,,,,,/muse/elements/blink
2025-04-17 20:23:50.808,0.6413568279367771,0.5976689373587444,0,0.5986235508868698,0.3149528487771882,0.6324158347657968,0,0.3982234948212062,0.622555554742703,0.6127299822951883,0,0.5450480612394862,0.5299950086358657,0.7649324074634903,0,0.6630077516434665,0.1943168907709615,0.3906549379282749,0,0.3882325062944303,815.1282051282052,950.5128205128206,908.2051282051282,809.0842490842491,780.4761904761905,0.378174,0.213196,0.911072,0.351410,-2.048645,0.500946,578608.058608,107231062.271062,84350256.410256,102.164848,1,2,4,4,2,40.000000
2025-04-17 20:23:51.813,0.6413568279367771,0.5976689373587444,0,0.5986235508868698,0.3149528487771882,0.6324158347657968,0,0.3982234948212062,0.622555554742703,0.6127299822951883,0,0.5450480612394862,0.5299950086358657,0.7649324074634903,0,0.6630077516434665,0.1943168907709615,0.3906549379282749,0,0.3882325062944303,770.8058608058608,871.5384615384615,922.3076923076924,772.8205128205128,587.8754578754579,0.377380,0.208923,0.916809,0.328979,-1.577606,0.201874,579413.919414,107316483.516484,84452600.732601,96.223137,1,2,4,2,2,40.000000
2025-04-17 20:23:52.808,0.6235371240769075,0.5976689373587444,0,0.07831564357553666,0.5348215703357734,0.6324158347657968,0,0.2701719118920937,0.5659215688945267,0.6127299822951883,0,0.669598310209096,0.8246601671771122,0.7649324074634903,0,0.852393859520618,0.1805266588022384,0.3906549379282749,0,0.2237764467035765,807.8754578754579,1125.787545787546,969.8534798534798,784.9084249084249,651.941391941392,0.372131,0.208191,0.912231,0.456085,-1.398163,-0.127106,579413.919414,107430915.750916,84485641.025641,89.822464,1,1,4,2,1,40.000000
2025-04-17 20:23:53.452,,,,,,,,,,,,,,,,,,,,,,,,,,,,,,,,,,,,,,,,,,/muse/elements/blink
2025-04-17 20:23:53.808,0.4411970035770219,0.5976689373587444,0,-0.01635275825179469,0.2120782089167761,0.6324158347657968,0,0.2481717892866584,0.3514433790314582,0.6127299822951883,0,0.9202664577593069,0.781838572641654,0.7649324074634903,0,0.7150069240452186,0.1634982551417916,0.3906549379282749,0,0.3197187095230471,872.7472527472528,805.8608058608058,873.956043956044,851.7948717948718,962.6007326007326,0.369019,0.207947,0.911499,0.732727,-0.986938,-0.336456,581025.641026,107577582.417582,84482417.582418,84.711205,1,1,4,2,1,40.000000
2025-04-17 20:23:53.924,,,,,,,,,,,,,,,,,,,,,,,,,,,,,,,,,,,,,,,,,,/muse/elements/blink
2025-04-17 20:23:54.263,,,,,,,,,,,,,,,,,,,,,,,,,,,,,,,,,,,,,,,,,,/muse/elements/blink
2025-04-17 20:23:54.808,0.5112750321971479,0.5976689373587444,0,0.1811328958005576,0.4599535255952841,0.6324158347657968,0,0.3648719569297671,0.06175678456106764,0.6127299822951883,0,0.9129491019408547,0.5741103969157233,0.7649324074634903,0,0.6844529273590798,0.2486240256726685,0.3906549379282749,0,0.5200796091408382,770,1236.996336996337,977.9120879120879,775.6410256410256,574.981684981685,0.374573,0.208374,0.911682,0.456085,-1.861725,-0.358887,580219.780220,107410769.230769,84392967.032967,84.005913,1,1,4,2,1,40.000000
2025-04-17 20:23:55.054,,,,,,,,,,,,,,,,,,,,,,,,,,,,,,,,,,,,,,,,,,/muse/elements/blink
2025-04-17 20:23:55.374,,,,,,,,,,,,,,,,,,,,,,,,,,,,,,,,,,,,,,,,,,/muse/elements/blink
2025-04-17 20:23:55.808,0.5112750321971479,0.5976689373587444,0,0.1811328958005576,0.4599535255952841,0.6324158347657968,0,0.3648719569297671,0.06175678456106764,0.6127299822951883,0,0.9129491019408547,0.5741103969157233,0.7649324074634903,0,0.6844529273590798,0.2486240256726685,0.3906549379282749,0,0.5200796091408382,754.2857142857143,622.5274725274726,636.6300366300367,794.981684981685,890.8791208791209,0.377441,0.209900,0.911865,0.493469,-1.495361,0.269165,579413.919414,107384981.684982,84425201.465201,82.310852,1,1,4,2,1,40.000000
2025-04-17 20:23:56.592,,,,,,,,,,,,,,,,,,,,,,,,,,,,,,,,,,,,,,,,,,/muse/elements/blink
2025-04-17 20:23:56.808,0.5112750321971479,0.5976689373587444,0,0.1811328958005576,0.4599535255952841,0.6324158347657968,0,0.3648719569297671,0.06175678456106764,0.6127299822951883,0,0.9129491019408547,0.5741103969157233,0.7649324074634903,0,0.6844529273590798,0.2486240256726685,0.3906549379282749,0,0.5200796091408382,821.978021978022,810.2930402930403,844.1391941391942,809.8901098901099,699.4871794871796,0.370422,0.208618,0.910889,0.351410,-1.114044,-0.433655,581831.501832,107445421.245421,84467106.227106,82.938347,1,2,2,2,2,40.000000
2025-04-17 20:23:57.808,0.5112750321971479,0.5976689373587444,0,0.1811328958005576,0.4599535255952841,0.6324158347657968,0,0.3648719569297671,0.06175678456106764,0.6127299822951883,0,0.9129491019408547,0.5741103969157233,0.7649324074634903,0,0.6844529273590798,0.2486240256726685,0.3906549379282749,0,0.5200796091408382,817.5457875457876,842.1245421245421,1007.728937728938,785.7142857142858,633.8095238095239,0.378418,0.209595,0.919189,0.762634,-1.383209,-0.246735,575384.615385,107162564.102564,83873992.673993,82.938347,1,2,4,2,2,40.000000
2025-04-17 20:23:58.808,0.6373521221668503,0.5976689373587444,0,0.4347431266981996,0.7361888040654025,0.6324158347657968,0,0.3483784695990076,0.6933453743466313,0.6127299822951883,0,0.8816654991317446,0.6744905168364725,0.7649324074634903,0,0.8205237958540746,0.0296377131815571,0.3906549379282749,0,0.5671846221706188,754.2857142857143,835.2747252747253,833.2600732600733,762.7472527472528,615.6776556776557,0.371948,0.209351,0.912781,0.276642,-1.525269,-0.485992,574578.754579,106914358.974359,83901391.941392,83.124283,1,1,2,2,1,40.000000
2025-04-17 20:23:59.722,,,,,,,,,,,,,,,,,,,,,,,,,,,,,,,,,,,,,,,,,,/muse/elements/jaw_clench
2025-04-17 20:23:59.807,0.5436073571998141,0.5976689373587444,0,0.4202277411129158,0.5259749478483707,0.6324158347657968,0,0.5054865288039361,0.7251502629200334,0.6127299822951883,0,0.9813168497863844,0.596906713637568,0.7649324074634903,0,0.8036697685304488,0.2444619538905136,0.3906549379282749,0,0.6407979677040153,762.3443223443223,589.4871794871796,691.4285714285714,732.9304029304029,801.8315018315019,0.371094,0.208740,0.914062,0.530853,-1.659851,-0.179443,574578.754579,106941758.241758,84067399.267399,82.605309,1,1,2,2,1,40.000000
2025-04-17 20:23:59.937,,,,,,,,,,,,,,,,,,,,,,,,,,,,,,,,,,,,,,,,,,/muse/elements/blink
2025-04-17 20:24:00.808,0.1794947666868062,0.5976689373587444,0,0.2516212471611573,-0.09012778131111364,0.6324158347657968,0,0.4680101846571232,0.2557576897220943,0.6127299822951883,0,0.6407539013312905,0.5378771269043333,0.7649324074634903,0,0.7330242664277781,0.2540361402124309,0.3906549379282749,0,0.6836260643447641,728.901098901099,511.3186813186813,1074.615384615385,689.8168498168499,714.7985347985348,0.376282,0.203247,0.915649,0.560760,-0.874786,0.074768,581025.641026,107031208.791209,84248717.948718,80.373138,1,1,2,2,1,40.000000
2025-04-17 20:24:00.939,,,,,,,,,,,,,,,,,,,,,,,,,,,,,,,,,,,,,,,,,,/muse/elements/blink
2025-04-17 20:24:01.663,,,,,,,,,,,,,,,,,,,,,,,,,,,,,,,,,,,,,,,,,,/muse/elements/blink
2025-04-17 20:24:01.808,0.1794947666868062,0.5976689373587444,0,0.2516212471611573,-0.09012778131111364,0.6324158347657968,0,0.4680101846571232,0.2557576897220943,0.6127299822951883,0,0.6407539013312905,0.5378771269043333,0.7649324074634903,0,0.7330242664277781,0.2540361402124309,0.3906549379282749,0,0.6836260643447641,794.5787545787546,761.5384615384615,929.1575091575091,792.1611721611722,753.0769230769231,0.372131,0.205627,0.916016,0.620575,-1.300964,-0.433655,578608.058608,107131941.391941,84151208.791209,79.014496,1,1,4,2,1,40.000000
2025-04-17 20:24:02.807,0.1794947666868062,0.5976689373587444,0,0.2516212471611573,-0.09012778131111364,0.6324158347657968,0,0.4680101846571232,0.2557576897220943,0.6127299822951883,0,0.6407539013312905,0.5378771269043333,0.7649324074634903,0,0.7330242664277781,0.2540361402124309,0.3906549379282749,0,0.6836260643447641,891.6849816849817,907.8021978021978,990.4029304029305,875.5677655677656,691.025641025641,0.373291,0.203247,0.916443,0.224304,-1.592560,-0.396271,587472.527473,107474432.234432,84609743.589744,77.371857,1,2,4,2,2,40.000000
2025-04-17 20:24:02.880,,,,,,,,,,,,,,,,,,,,,,,,,,,,,,,,,,,,,,,,,,/muse/elements/blink
2025-04-17 20:24:03.392,,,,,,,,,,,,,,,,,,,,,,,,,,,,,,,,,,,,,,,,,,/muse/elements/blink
2025-04-17 20:24:03.809,0.1794947666868062,0.5976689373587444,0,0.2516212471611573,-0.09012778131111364,0.6324158347657968,0,0.4680101846571232,0.2557576897220943,0.6127299822951883,0,0.6407539013312905,0.5378771269043333,0.7649324074634903,0,0.7330242664277781,0.2540361402124309,0.3906549379282749,0,0.6836260643447641,815.5311355311355,1307.912087912088,1014.578754578755,792.5641025641025,621.7216117216118,0.381592,0.215759,0.921631,-0.463562,-0.022430,-2.108459,581831.501832,107152087.912088,84093186.813187,77.266937,1,2,4,2,2,40.000000
2025-04-17 20:24:04.807,0.1794947666868062,0.5976689373587444,0,0.2516212471611573,-0.09012778131111364,0.6324158347657968,0,0.4680101846571232,0.2557576897220943,0.6127299822951883,0,0.6407539013312905,0.5378771269043333,0.7649324074634903,0,0.7330242664277781,0.2540361402124309,0.3906549379282749,0,0.6836260643447641,781.2820512820513,894.5054945054945,901.3553113553114,774.4322344322345,580.6227106227107,0.373596,0.206299,0.918762,0.792542,-0.000000,0.231781,583443.223443,107193992.673993,84318827.838828,77.340332,1,2,4,2,2,40.000000
2025-04-17 20:24:05.807,0.7199483778915398,0.5976689373587444,0,0.2516212471611573,0.4475044918662094,0.6324158347657968,0,0.4680101846571232,0.6182867505597771,0.6127299822951883,0,0.6407539013312905,0.7102427016871954,0.7649324074634903,0,0.7330242664277781,0.150709367502429,0.3906549379282749,0,0.6836260643447641,809.8901098901099,763.1501831501831,703.919413919414,794.981684981685,752.6739926739926,0.370667,0.206726,0.910828,-0.149536,-1.764526,-0.306549,581025.641026,107160952.380952,84253553.113553,77.340332,1,2,2,2,2,40.000000
2025-04-17 20:24:06.808,0.6470388296079108,0.5976689373587444,0,0.6406821109046067,0.4797709026909666,0.6324158347657968,0,-0.011060026969389,0.6453427870325286,0.6127299822951883,0,0.5649922428767933,0.4851096318300945,0.7649324074634903,0,0.9001963980814967,0.03945205182924164,0.3906549379282749,0,0.2430951286747666,796.996336996337,936.007326007326,650.3296703296703,773.2234432234433,608.021978021978,0.375427,0.208313,0.914429,0.598145,-2.138367,0.127106,578608.058608,107032820.512821,83923150.183150,77.545807,1,1,2,2,1,40.000000
2025-04-17 20:24:07.066,,,,,,,,,,,,,,,,,,,,,,,,,,,,,,,,,,,,,,,,,,/muse/elements/blink
2025-04-17 20:24:07.808,0.5249562890741682,0.5976689373587444,0,0.5361059475775117,0.4596143102997085,0.6324158347657968,0,0.02282199993743158,0.3394841832278702,0.6127299822951883,0,0.296388556374809,0.3158053173215768,0.7649324074634903,0,0.7964614128777878,-0.007547301836401623,0.3906549379282749,0,0.179868809651086,744.6153846153846,677.7289377289377,788.5347985347986,747.8388278388279,702.7106227106227,0.374451,0.209717,0.915527,0.456085,-1.600037,-0.358887,574578.754579,106687106.227106,83450109.890110,78.341652,1,1,4,2,1,40.000000
2025-04-17 20:24:08.808,0.8258562771933776,0.5976689373587444,0,0.7984540157204308,0.7006199598111449,0.6324158347657968,0,0.6427878530692113,0.3505111722865834,0.6127299822951883,0,1.09841818165487,0.5881442786108131,0.7649324074634903,0,1.175114111727396,0.1763022980253454,0.3906549379282749,0,0.5867532251181505,726.8864468864469,325.5677655677656,398.9010989010989,740.989010989011,949.7069597069598,0.374695,0.203491,0.913391,0.568237,-1.966400,0.149536,574578.754579,106579926.739927,83388864.468864,78.341652,1,1,2,2,1,40.000000
2025-04-17 20:24:08.967,,,,,,,,,,,,,,,,,,,,,,,,,,,,,,,,,,,,,,,,,,/muse/elements/blink
2025-04-17 20:24:09.810,0.8258562771933776,0.5976689373587444,0,0.7444737390115854,0.7006199598111449,0.6324158347657968,0,0.6703898158583689,0.3505111722865834,0.6127299822951883,0,1.09841818165487,0.5881442786108131,0.7649324074634903,0,1.152045727755329,0.1763022980253454,0.3906549379282749,0,0.6127373547578956,812.3076923076924,1123.772893772894,1004.505494505495,778.8644688644689,568.1318681318681,0.383301,0.206421,0.911987,0.538330,-2.228088,0.306549,569743.589744,106540439.560440,83558095.238095,78.341652,1,1,4,2,1,40.000000
2025-04-17 20:24:10.814,0.4242291468958865,0.5976689373587444,0,0.9300712966772363,0.6500111088307587,0.6324158347657968,0,0.6562711428767991,0.6800993697028302,0.6127299822951883,0,0.9241418081663351,0.5467640286788225,0.7649324074634903,0,0.8857439751283511,0.3253731416177,0.3906549379282749,0,0.5061461409767526,755.0915750915751,638.2417582417582,773.2234432234433,747.032967032967,627.3626373626374,0.383728,0.207336,0.908264,0.553284,-1.689758,-0.044861,566520.146520,106621831.501832,83382417.582418,78.341652,1,1,4,2,1,40.000000
2025-04-17 20:24:11.211,,,,,,,,,,,,,,,,,,,,,,,,,,,,,,,,,,,,,,,,,,/muse/elements/blink
2025-04-17 20:24:11.724,,,,,,,,,,,,,,,,,,,,,,,,,,,,,,,,,,,,,,,,,,/muse/elements/blink
2025-04-17 20:24:11.808,0.3511054854336292,0.5976689373587444,0,0.9717971269031276,0.6582086046358842,0.6324158347657968,0,0.694653212521987,0.6488567466252121,0.6127299822951883,0,0.8445581285662638,0.5234496699862695,0.7649324074634903,0,0.8218993767528781,0.2483685048315649,0.3906549379282749,0,0.4587815006997934,805.0549450549451,370.2930402930403,516.5567765567765,820.7692307692308,679.7435897435897,0.378784,0.205566,0.913391,0.373840,-1.577606,-0.164490,568937.728938,106694358.974359,83359047.619048,78.289619,1,1,4,2,1,40.000000
2025-04-17 20:24:12.216,,,,,,,,,,,,,,,,,,,,,,,,,,,,,,,,,,,,,,,,,,/muse/elements/blink
2025-04-17 20:24:12.559,,,,,,,,,,,,,,,,,,,,,,,,,,,,,,,,,,,,,,,,,,/muse/elements/blink
2025-04-17 20:24:12.808,0.1353678682183643,0.5976689373587444,0,0.9435871644617605,0.5896939404584284,0.6324158347657968,0,0.5606873582886178,0.6160603938458094,0.6127299822951883,0,0.3407632581583591,0.4631056283013511,0.7649324074634903,0,0.7430389327860825,0.1675131717943827,0.3906549379282749,0,0.3884778531336827,827.6190476190476,1065.347985347985,960.1831501831502,807.4725274725275,612.8571428571429,0.382019,0.208374,0.911255,0.500946,-1.570129,0.306549,573772.893773,106767692.307692,83520219.780220,77.943497,1,1,4,4,1,40.000000
2025-04-17 20:24:13.221,,,,,,,,,,,,,,,,,,,,,,,,,,,,,,,,,,,,,,,,,,/muse/elements/blink
2025-04-17 20:24:13.734,,,,,,,,,,,,,,,,,,,,,,,,,,,,,,,,,,,,,,,,,,/muse/elements/blink
2025-04-17 20:24:13.811,0.1353678682183643,0.5976689373587444,0,0.9435871644617605,0.5896939404584284,0.6324158347657968,0,0.5606873582886178,0.6160603938458094,0.6127299822951883,0,0.3407632581583591,0.4631056283013511,0.7649324074634903,0,0.7430389327860825,0.1675131717943827,0.3906549379282749,0,0.3884778531336827,762.3443223443223,878.3882783882784,835.2747252747253,774.8351648351648,623.3333333333334,0.380310,0.209351,0.910706,0.889740,-1.682281,0.119629,575384.615385,106807179.487179,83688644.688645,77.299919,1,2,4,2,2,40.000000
2025-04-17 20:24:14.808,0.1353678682183643,0.5976689373587444,0,0.9435871644617605,0.5896939404584284,0.6324158347657968,0,0.5606873582886178,0.6160603938458094,0.6127299822951883,0,0.3407632581583591,0.4631056283013511,0.7649324074634903,0,0.7430389327860825,0.1675131717943827,0.3906549379282749,0,0.3884778531336827,739.7802197802198,286.8864468864469,658.7912087912088,728.0952380952381,830.0366300366301,0.383606,0.206604,0.912292,0.471039,-1.816864,-0.433655,574578.754579,106858754.578755,83662051.282051,76.736153,1,2,4,2,2,40.000000
2025-04-17 20:24:15.251,,,,,,,,,,,,,,,,,,,,,,,,,,,,,,,,,,,,,,,,,,/muse/elements/blink
2025-04-17 20:24:15.808,0.1353678682183643,0.5976689373587444,0,0.9435871644617605,0.5896939404584284,0.6324158347657968,0,0.5606873582886178,0.6160603938458094,0.6127299822951883,0,0.3407632581583591,0.4631056283013511,0.7649324074634903,0,0.7430389327860825,0.1675131717943827,0.3906549379282749,0,0.3884778531336827,740.1831501831502,1092.747252747253,1012.161172161172,714.3956043956044,595.1282051282052,0.386169,0.207520,0.909607,0.508423,-1.457977,-0.224304,569743.589744,106729010.989011,83694285.714286,76.736153,1,2,4,2,2,40.000000
2025-04-17 20:24:16.001,,,,,,,,,,,,,,,,,,,,,,,,,,,,,,,,,,,,,,,,,,/muse/elements/blink
2025-04-17 20:24:16.808,0.1353678682183643,0.5976689373587444,0,0.9435871644617605,0.5896939404584284,0.6324158347657968,0,0.5606873582886178,0.6160603938458094,0.6127299822951883,0,0.3407632581583591,0.4631056283013511,0.7649324074634903,0,0.7430389327860825,0.1675131717943827,0.3906549379282749,0,0.3884778531336827,745.0183150183151,827.2161172161173,878.3882783882784,776.8498168498169,604.7985347985348,0.383545,0.206055,0.907532,0.418701,-1.495361,0.089722,572967.032967,106687106.227106,83772454.212454,76.091728,1,2,4,2,2,40.000000
2025-04-17 20:24:17.393,,,,,,,,,,,,,,,,,,,,,,,,,,,,,,,,,,,,,,,,,,/muse/elements/jaw_clench
2025-04-17 20:24:17.808,0.617940962059082,0.5976689373587444,0,0.4947965659790129,-0.002753382056843236,0.6324158347657968,0,0.245770409668074,0.3844514772679504,0.6127299822951883,0,0.3804357904230894,0.6317473426635977,0.7649324074634903,0,0.9032200350565407,0.07872569448829354,0.3906549379282749,0,0.4227022748988061,781.2820512820513,940.8424908424909,810.2930402930403,782.893772893773,603.992673992674,0.386658,0.208557,0.907837,0.366364,-1.562653,-0.291595,570549.450549,106637948.717949,83664468.864469,76.758804,1,1,4,2,1,40.000000
2025-04-17 20:24:18.810,0.8832413211030672,0.5976689373587444,0,0.7227075057049501,0.2909131338987775,0.6324158347657968,0,0.4617319842420235,0.568693998446818,0.6127299822951883,0,0.5780835122347081,0.4717341720464336,0.7649324074634903,0,0.8945439369494905,0.190411011905268,0.3906549379282749,0,0.5547691972864182,814.3223443223443,1421.941391941392,932.3809523809524,804.2490842490843,635.0183150183151,0.381409,0.203979,0.913879,1.009369,-1.697235,0.097198,568937.728938,106757216.117216,83569377.289377,77.738686,1,1,4,2,1,40.000000
2025-04-17 20:24:19.810,0.4555381306887971,0.5976689373587444,0,0.4527447189630481,0.2869540289382746,0.6324158347657968,0,0.3932351578799866,0.6766637179478139,0.6127299822951883,0,0.5982301070937093,0.4118367743235102,0.7649324074634903,0,0.6445194522034421,0.2742577177286463,0.3906549379282749,0,0.3560444208221847,748.2417582417582,1263.992673992674,737.7655677655678,768.7912087912088,815.1282051282052,0.380188,0.206299,0.911194,0.209351,-1.637421,-0.164490,568937.728938,106626666.666667,83322783.882784,78.949799,1,1,4,2,1,40.000000
2025-04-17 20:24:20.036,,,,,,,,,,,,,,,,,,,,,,,,,,,,,,,,,,,,,,,,,,/muse/elements/blink
2025-04-17 20:24:20.807,-0.04404541967671746,0.5976689373587444,0,0.2394763816914348,0.2390691789729789,0.6324158347657968,0,-0.01806595586031142,0.4738316364292062,0.6127299822951883,0,0.5028447374933371,0.5654935317810654,0.7649324074634903,0,0.6220771024836398,0.3155009762025625,0.3906549379282749,0,0.3723211915949907,774.4322344322345,1543.223443223443,745.0183150183151,804.2490842490843,670.4761904761905,0.380615,0.205322,0.915588,0.628052,-1.697235,0.433655,576996.336996,106832161.172161,83832087.912088,78.678970,1,1,2,2,1,40.000000
2025-04-17 20:24:21.251,,,,,,,,,,,,,,,,,,,,,,,,,,,,,,,,,,,,,,,,,,/muse/elements/blink
2025-04-17 20:24:21.764,,,,,,,,,,,,,,,,,,,,,,,,,,,,,,,,,,,,,,,,,,/muse/elements/blink
2025-04-17 20:24:21.814,0.0344591754366543,0.5976689373587444,0,0.2198989174498269,0.2476824098826971,0.6324158347657968,0,-0.1088720983710145,0.4331924938880375,0.6127299822951883,0,0.4032826149937585,0.6062218743733711,0.7649324074634903,0,0.6916293502172256,0.3684447532395355,0.3906549379282749,0,0.4519132617137452,851.7948717948718,1625.824175824176,913.040293040293,833.2600732600733,603.992673992674,0.383423,0.199890,0.911682,0.426178,-1.846771,-0.142059,581025.641026,106976410.256410,84149597.069597,77.218864,1,1,4,2,1,40.000000
2025-04-17 20:24:22.551,,,,,,,,,,,,,,,,,,,,,,,,,,,,,,,,,,,,,,,,,,/muse/elements/blink
2025-04-17 20:24:22.809,0.0344591754366543,0.5976689373587444,0,0.2198989174498269,0.2476824098826971,0.6324158347657968,0,-0.1088720983710145,0.4331924938880375,0.6127299822951883,0,0.4032826149937585,0.6062218743733711,0.7649324074634903,0,0.6916293502172256,0.3684447532395355,0.3906549379282749,0,0.4519132617137452,670.8791208791209,286.0805860805861,815.1282051282052,688.2051282051282,699.4871794871796,0.382751,0.201843,0.910522,0.575714,-1.413116,-0.366364,584249.084249,107048937.728938,84098827.838828,74.892082,1,2,4,2,2,40.000000
2025-04-17 20:24:22.980,,,,,,,,,,,,,,,,,,,,,,,,,,,,,,,,,,,,,,,,,,/muse/elements/blink
2025-04-17 20:24:23.808,0.0344591754366543,0.5976689373587444,0,0.2198989174498269,0.2476824098826971,0.6324158347657968,0,-0.1088720983710145,0.4331924938880375,0.6127299822951883,0,0.4032826149937585,0.6062218743733711,0.7649324074634903,0,0.6916293502172256,0.3684447532395355,0.3906549379282749,0,0.4519132617137452,766.7765567765568,1025.457875457875,824.7985347985348,778.4615384615385,720.8424908424909,0.381287,0.203491,0.916382,0.762634,-1.495361,-0.239258,577802.197802,106817655.677656,83831282.051282,74.085258,1,2,2,2,2,40.000000
2025-04-17 20:24:24.810,0.3498236454282969,0.5976689373587444,0,0.4425121547645339,0.07152239077314239,0.6324158347657968,0,-0.3903273800864582,0.5993585712940427,0.6127299822951883,0,0.4277084571280223,0.4329039820822683,0.7649324074634903,0,0.6534834828273006,0.1366590323408269,0.3906549379282749,0,0.3336642249624857,792.5641025641025,1105.641025641026,907.3992673992674,786.5201465201466,664.4322344322344,0.378235,0.196777,0.913147,-0.014954,-1.749573,-0.388794,575384.615385,106646007.326007,83722490.842491,77.305344,1,1,2,2,1,40.000000
2025-04-17 20:24:25.811,0.692953863858816,0.5976689373587444,0,0.2830404963978118,0.148424828253594,0.6324158347657968,0,0.1239045402083282,0.6485189306843663,0.6127299822951883,0,0.6944332917463532,0.4914050508111911,0.7649324074634903,0,0.7791497428319352,0.2562699554773301,0.3906549379282749,0,0.5227083645937252,778.0586080586081,0,820.3663003663004,764.3589743589744,630.1831501831502,0.378845,0.196594,0.906555,0.515900,-1.256104,0.358887,573772.893773,106596849.816850,83673333.333333,77.285233,1,1,2,2,1,40.000000
2025-04-17 20:24:26.229,,,,,,,,,,,,,,,,,,,,,,,,,,,,,,,,,,,,,,,,,,/muse/elements/blink
2025-04-17 20:24:26.721,,,,,,,,,,,,,,,,,,,,,,,,,,,,,,,,,,,,,,,,,,/muse/elements/blink
2025-04-17 20:24:26.815,0.601036689956411,0.5976689373587444,0,0.2467709741123197,0.190190566693357,0.6324158347657968,0,0.4000615793960499,0.2488260278060215,0.6127299822951883,0,0.642164235101939,0.4215709222947639,0.7649324074634903,0,0.970568047594749,0.3174335235793778,0.3906549379282749,0,0.6568731828970582,776.4468864468864,1622.197802197802,737.3626373626374,784.5054945054945,732.9304029304029,0.391785,0.205139,0.909790,0.523376,-1.757050,-0.171967,571355.311355,106542857.142857,83432380.952381,76.606339,1,1,2,2,1,40.000000
2025-04-17 20:24:27.808,0.2647075341841745,0.5976689373587444,0,0.2403583925694514,0.2466483974707523,0.6324158347657968,0,0.348909915248504,0.1383192192651032,0.6127299822951883,0,0.5702418401009048,0.3864098211549513,0.7649324074634903,0,1.00879408724707,0.402582436882182,0.3906549379282749,0,0.6651677868656352,771.2087912087912,1058.095238095238,966.2271062271062,767.5824175824176,557.6556776556777,0.383362,0.205811,0.908875,1.076660,-1.368256,0.164490,567326.007326,106353479.853480,83036703.296703,76.438385,1,1,4,2,1,40.000000
2025-04-17 20:24:28.367,,,,,,,,,,,,,,,,,,,,,,,,,,,,,,,,,,,,,,,,,,/muse/elements/blink
2025-04-17 20:24:28.808,0.2647075341841745,0.5976689373587444,0,0.2403583925694514,0.2466483974707523,0.6324158347657968,0,0.348909915248504,0.1383192192651032,0.6127299822951883,0,0.5702418401009048,0.3864098211549513,0.7649324074634903,0,1.00879408724707,0.402582436882182,0.3906549379282749,0,0.6651677868656352,964.2124542124542,32.63736263736264,978.7179487179487,949.7069597069598,730.5128205128206,0.386353,0.202820,0.908630,0.575714,-1.383209,-0.067291,569743.589744,106309157.509158,83196263.736264,75.972328,1,2,4,2,2,40.000000
2025-04-17 20:24:28.881,,,,,,,,,,,,,,,,,,,,,,,,,,,,,,,,,,,,,,,,,,/muse/elements/blink
2025-04-17 20:24:29.810,0.2647075341841745,0.5976689373587444,0,0.2403583925694514,0.2466483974707523,0.6324158347657968,0,0.348909915248504,0.1383192192651032,0.6127299822951883,0,0.5702418401009048,0.3864098211549513,0.7649324074634903,0,1.00879408724707,0.402582436882182,0.3906549379282749,0,0.6651677868656352,817.948717948718,0,899.7435897435897,830.0366300366301,590.6959706959707,0.388611,0.203186,0.913269,0.762634,-1.689758,0.500946,571355.311355,106484835.164835,83422710.622711,75.972328,1,2,4,2,2,40.000000
2025-04-17 20:24:29.866,,,,,,,,,,,,,,,,,,,,,,,,,,,,,,,,,,,,,,,,,,/muse/elements/blink
2025-04-17 20:24:30.806,,,,,,,,,,,,,,,,,,,,,,,,,,,,,,,,,,,,,,,,,,/muse/elements/blink
2025-04-17 20:24:30.814,0.2647075341841745,0.5976689373587444,0,0.2403583925694514,0.2466483974707523,0.6324158347657968,0,0.348909915248504,0.1383192192651032,0.6127299822951883,0,0.5702418401009048,0.3864098211549513,0.7649324074634903,0,1.00879408724707,0.402582436882182,0.3906549379282749,0,0.6651677868656352,861.0622710622711,1633.076923076923,980.7326007326008,860.6593406593407,558.4615384615385,0.382874,0.202209,0.909485,0.889740,-1.256104,0.388794,570549.450549,106134285.714286,83339706.959707,75.972328,1,2,4,2,2,40.000000
2025-04-17 20:24:31.705,,,,,,,,,,,,,,,,,,,,,,,,,,,,,,,,,,,,,,,,,,/muse/elements/blink
2025-04-17 20:24:31.807,0.2647075341841745,0.5976689373587444,0,0.2403583925694514,0.2466483974707523,0.6324158347657968,0,0.348909915248504,0.1383192192651032,0.6127299822951883,0,0.5702418401009048,0.3864098211549513,0.7649324074634903,0,1.00879408724707,0.402582436882182,0.3906549379282749,0,0.6651677868656352,811.9047619047619,1178.974358974359,567.7289377289377,802.6373626373627,662.8205128205128,0.384827,0.206116,0.908875,0.874786,-1.719666,-0.246735,571355.311355,105790989.010989,83349377.289377,76.873985,1,2,4,2,2,40.000000
2025-04-17 20:24:32.221,,,,,,,,,,,,,,,,,,,,,,,,,,,,,,,,,,,,,,,,,,/muse/elements/blink
2025-04-17 20:24:32.808,0.2647075341841745,0.5976689373587444,0,0.2403583925694514,0.2466483974707523,0.6324158347657968,0,0.348909915248504,0.1383192192651032,0.6127299822951883,0,0.5702418401009048,0.3864098211549513,0.7649324074634903,0,1.00879408724707,0.402582436882182,0.3906549379282749,0,0.6651677868656352,748.6446886446887,867.5091575091575,861.0622710622711,759.92673992674,650.7326007326008,0.383057,0.213623,0.912598,0.381317,-1.398163,-0.598145,567326.007326,105637069.597070,83404981.684982,76.932823,1,2,4,2,2,40.000000
2025-04-17 20:24:33.249,,,,,,,,,,,,,,,,,,,,,,,,,,,,,,,,,,,,,,,,,,/muse/elements/blink
2025-04-17 20:24:33.654,,,,,,,,,,,,,,,,,,,,,,,,,,,,,,,,,,,,,,,,,,/muse/elements/blink
2025-04-17 20:24:33.812,0.2647075341841745,0.5976689373587444,0,0.2403583925694514,0.2466483974707523,0.6324158347657968,0,0.348909915248504,0.1383192192651032,0.6127299822951883,0,0.5702418401009048,0.3864098211549513,0.7649324074634903,0,1.00879408724707,0.402582436882182,0.3906549379282749,0,0.6651677868656352,804.6520146520147,1650,736.5567765567765,765.1648351648352,608.4249084249085,0.378967,0.219116,0.912659,0.530853,-1.555176,-0.014954,573772.893773,105493626.373626,83693479.853480,76.932823,1,2,4,2,2,40.000000
2025-04-17 20:24:34.040,,,,,,,,,,,,,,,,,,,,,,,,,,,,,,,,,,,,,,,,,,/muse/elements/blink
2025-04-17 20:24:34.808,0.2647075341841745,0.5976689373587444,0,0.2403583925694514,0.2466483974707523,0.6324158347657968,0,0.348909915248504,0.1383192192651032,0.6127299822951883,0,0.5702418401009048,0.3864098211549513,0.7649324074634903,0,1.00879408724707,0.402582436882182,0.3906549379282749,0,0.6651677868656352,822.3809523809524,0,834.0659340659341,821.5750915750916,673.6996336996338,0.378662,0.208679,0.909180,0.553284,-1.360779,0.239258,576190.476190,105622564.102564,83786153.846154,78.780258,1,2,4,2,2,40.000000
2025-04-17 20:24:35.816,0.2647075341841745,0.5976689373587444,0,0.2403583925694514,0.2466483974707523,0.6324158347657968,0,0.348909915248504,0.1383192192651032,0.6127299822951883,0,0.5702418401009048,0.3864098211549513,0.7649324074634903,0,1.00879408724707,0.402582436882182,0.3906549379282749,0,0.6651677868656352,789.3406593406594,965.0183150183151,965.4212454212454,777.2527472527473,611.2454212454213,0.379700,0.204773,0.915894,0.762634,-1.600037,-0.022430,571355.311355,105758754.578755,83718461.538462,78.573227,1,2,2,2,2,40.000000
2025-04-17 20:24:36.490,,,,,,,,,,,,,,,,,,,,,,,,,,,,,,,,,,,,,,,,,,/muse/elements/blink
2025-04-17 20:24:36.808,0.2647075341841745,0.5976689373587444,0,0.2403583925694514,0.2466483974707523,0.6324158347657968,0,0.348909915248504,0.1383192192651032,0.6127299822951883,0,0.5702418401009048,0.3864098211549513,0.7649324074634903,0,1.00879408724707,0.402582436882182,0.3906549379282749,0,0.6651677868656352,754.2857142857143,806.2637362637363,775.2380952380953,769.5970695970697,909.4139194139194,0.379578,0.206909,0.907715,0.082245,-1.562653,-0.029907,572967.032967,105699120.879121,83888498.168498,80.432373,1,2,4,2,2,40.000000
2025-04-17 20:24:37.808,0.2647075341841745,0.5976689373587444,0,0.2403583925694514,0.2466483974707523,0.6324158347657968,0,0.348909915248504,0.1383192192651032,0.6127299822951883,0,0.5702418401009048,0.3864098211549513,0.7649324074634903,0,1.00879408724707,0.402582436882182,0.3906549379282749,0,0.6651677868656352,848.1684981684982,919.8901098901099,952.5274725274726,828.021978021978,765.1648351648352,0.391602,0.213562,0.896729,-0.964508,0.717773,-1.345825,552820.512821,105634652.014652,83699120.879121,81.160385,1,2,4,2,2,40.000000
2025-04-17 20:24:38.223,,,,,,,,,,,,,,,,,,,,,,,,,,,,,,,,,,,,,,,,,,/muse/elements/blink
2025-04-17 20:24:38.808,0.2647075341841745,0.5976689373587444,0,0.2403583925694514,0.2466483974707523,0.6324158347657968,0,0.348909915248504,0.1383192192651032,0.6127299822951883,0,0.5702418401009048,0.3864098211549513,0.7649324074634903,0,1.00879408724707,0.402582436882182,0.3906549379282749,0,0.6651677868656352,799.4139194139194,1034.725274725275,933.992673992674,813.5164835164835,605.6043956043957,0.380188,0.205383,0.906921,0.351410,-1.562653,0.157013,568937.728938,105804688.644689,83890109.890110,87.454803,1,2,2,2,2,40.000000
2025-04-17 20:24:39.520,,,,,,,,,,,,,,,,,,,,,,,,,,,,,,,,,,,,,,,,,,/muse/elements/blink
2025-04-17 20:24:39.808,0.2647075341841745,0.5976689373587444,0,0.2403583925694514,0.2466483974707523,0.6324158347657968,0,0.348909915248504,0.1383192192651032,0.6127299822951883,0,0.5702418401009048,0.3864098211549513,0.7649324074634903,0,1.00879408724707,0.402582436882182,0.3906549379282749,0,0.6651677868656352,770.4029304029305,1090.32967032967,942.0512820512821,779.2673992673992,569.7435897435897,0.375854,0.206482,0.920471,0.089722,-0.740204,-0.007477,567326.007326,105803076.923077,83774871.794872,87.454803,1,2,4,2,2,40.000000
2025-04-17 20:24:40.807,0.2647075341841745,0.5976689373587444,0,0.2403583925694514,0.2466483974707523,0.6324158347657968,0,0.348909915248504,0.1383192192651032,0.6127299822951883,0,0.5702418401009048,0.3864098211549513,0.7649324074634903,0,1.00879408724707,0.402582436882182,0.3906549379282749,0,0.6651677868656352,856.2271062271062,0,832.0512820512821,856.6300366300367,716.4102564102565,0.381531,0.206055,0.911743,-0.254211,-1.151428,0.575714,571355.311355,106040000.000000,83940879.120879,85.982780,1,2,4,2,2,40.000000
2025-04-17 20:24:40.843,,,,,,,,,,,,,,,,,,,,,,,,,,,,,,,,,,,,,,,,,,/muse/elements/blink
2025-04-17 20:24:41.808,0.2647075341841745,0.5976689373587444,0,0.2403583925694514,0.2466483974707523,0.6324158347657968,0,0.348909915248504,0.1383192192651032,0.6127299822951883,0,0.5702418401009048,0.3864098211549513,0.7649324074634903,0,1.00879408724707,0.402582436882182,0.3906549379282749,0,0.6651677868656352,762.7472527472528,1232.564102564103,996.0439560439561,738.5714285714286,583.4432234432235,0.379089,0.195374,0.914062,0.672913,-2.093506,-1.076660,577802.197802,106218901.098901,84164908.424908,85.982780,1,2,2,2,2,40.000000
2025-04-17 20:24:42.069,,,,,,,,,,,,,,,,,,,,,,,,,,,,,,,,,,,,,,,,,,/muse/elements/blink
2025-04-17 20:24:42.808,1.363843501297192,0.5976689373587444,0,1.477164273754441,1.00370937577502,0.6324158347657968,0,1.127517665438416,0.8289336333980408,0.6127299822951883,0,1.31912305135584,0.9547073637104161,0.7649324074634903,0,1.01451184408751,0.2352755173426756,0.3906549379282749,0,0.4786613573989354,756.7032967032967,953.7362637362637,808.2783882783883,790.1465201465202,619.7069597069598,0.377136,0.197083,0.912720,-0.209351,-1.861725,-0.770111,578608.058608,106233406.593407,84322857.142857,87.673988,1,1,2,2,1,40.000000
2025-04-17 20:24:43.807,1.126329607823698,0.5976689373587444,0,0.8314047236848633,0.490867310308201,0.6324158347657968,0,0.5537250684227611,0.8233006700580983,0.6127299822951883,0,1.246217881956675,0.6369126804296534,0.7649324074634903,0,0.9272101612343526,0.280043628358949,0.3906549379282749,0,0.4494440321016884,813.1135531135532,805.0549450549451,938.4249084249085,801.025641025641,807.8754578754579,0.374268,0.202148,0.911926,0.912170,-0.904694,0.643005,572967.032967,105925567.765568,83576630.036630,87.673988,1,1,2,2,1,40.000000
2025-04-17 20:24:44.807,0.7529168091747939,0.5976689373587444,0,0.5740548160650045,0.3282069478241352,0.6324158347657968,0,0.3870404935445678,0.6943910401031101,0.6127299822951883,0,0.6661331912669601,0.5519631009941668,0.7649324074634903,0,0.8732258976272431,0.297300698501213,0.3906549379282749,0,0.448619525020623,820.7692307692308,1059.304029304029,884.0293040293041,799.0109890109891,605.6043956043957,0.381531,0.202759,0.913635,0.433655,-1.749573,0.127106,572161.172161,105867545.787546,83718461.538462,87.673988,1,1,2,2,1,40.000000
2025-04-17 20:24:45.724,,,,,,,,,,,,,,,,,,,,,,,,,,,,,,,,,,,,,,,,,,/muse/elements/blink
2025-04-17 20:24:45.808,0.7630695652808378,0.5976689373587444,0,0.6726671914877509,0.358419025885117,0.6324158347657968,0,0.4283016202617884,0.7008582903779057,0.6127299822951883,0,0.8026747172858363,0.4892206272153794,0.7649324074634903,0,0.8504407254937314,0.3368846416970145,0.3906549379282749,0,0.51357104233356,837.6923076923077,367.8754578754579,703.1135531135532,844.1391941391942,1031.098901098901,0.378296,0.200073,0.921875,1.181335,-1.517792,0.044861,579413.919414,106128644.688645,83930402.930403,86.489349,1,1,2,2,1,40.000000
2025-04-17 20:24:46.807,0.8916594072448489,0.5976689373587444,0,0.5717669726947704,0.3488071656866922,0.6324158347657968,0,0.3975778940090978,0.2074120616050886,0.6127299822951883,0,0.6827997462631276,0.4669056289770534,0.7649324074634903,0,0.9255669794293754,0.26883879494841,0.3906549379282749,0,0.5344901378758377,817.948717948718,936.007326007326,904.1758241758242,814.7252747252747,681.3553113553114,0.380249,0.198059,0.908386,0.657959,-1.323395,0.373840,573772.893773,105947326.007326,83500073.260073,84.363823,1,1,2,2,1,40.000000
2025-04-17 20:24:47.807,0.3370856763899556,0.5976689373587444,0,0.4583759225295892,0.3261267738038648,0.6324158347657968,0,0.2195597165384858,0.387785462840214,0.6127299822951883,0,0.9501964440536399,0.3492994796208378,0.7649324074634903,0,0.8226917207847112,-0.0858421905767535,0.3906549379282749,0,0.4107228767489858,804.6520146520147,1003.296703296703,965.0183150183151,774.4322344322345,657.1794871794872,0.379089,0.201721,0.910522,0.493469,-1.607513,-0.276642,569743.589744,105690256.410256,83396117.216117,82.936859,1,1,2,2,1,40.000000
2025-04-17 20:24:48.807,0.5777521483489799,0.5976689373587444,0,0.3628124305045511,0.4258603025404264,0.6324158347657968,0,0.008090920721888788,0.3503558221357318,0.6127299822951883,0,0.9577887628108642,0.4231549310846857,0.7649324074634903,0,0.7979711098653166,-0.02166325258059163,0.3906549379282749,0,0.4624398027844537,775.6410256410256,1031.501831501831,894.5054945054945,774.4322344322345,767.1794871794872,0.378052,0.205322,0.915039,0.971985,-1.547699,-0.254211,567326.007326,105600805.860806,83417069.597070,82.936859,1,1,2,2,1,40.000000
2025-04-17 20:24:49.807,0.4457420778764162,0.5976689373587444,0,0.408035403110487,0.2448107759474047,0.6324158347657968,0,0.3016251209459992,0.5996370902109527,0.6127299822951883,0,1.116581677513533,0.4200684595966349,0.7649324074634903,0,0.914451717207868,0.02571642422139428,0.3906549379282749,0,0.4828916818476839,753.0769230769231,73.33333333333333,885.6410256410256,750.6593406593407,664.4322344322344,0.374329,0.203674,0.921631,0.844879,-1.151428,0.807495,573772.893773,105671721.611722,83455750.915751,82.680298,1,1,2,2,1,40.000000
2025-04-17 20:24:49.985,,,,,,,,,,,,,,,,,,,,,,,,,,,,,,,,,,,,,,,,,,/muse/elements/blink
2025-04-17 20:24:50.417,,,,,,,,,,,,,,,,,,,,,,,,,,,,,,,,,,,,,,,,,,/muse/elements/blink
2025-04-17 20:24:50.807,0.4270790991989911,0.5976689373587444,0,0.6375330831489708,0.2294851725204071,0.6324158347657968,0,0.2131438531026603,0.5542621724090685,0.6127299822951883,0,0.8952946215653322,0.2820112046531085,0.7649324074634903,0,0.9274020287538294,0.1095025456782907,0.3906549379282749,0,0.3628097985426638,819.1575091575091,1276.483516483516,1008.534798534799,813.1135531135532,559.2673992673992,0.376587,0.203064,0.912720,0.411224,-1.457977,-0.067291,576190.476190,105927179.487179,83647545.787546,82.326401,1,1,4,2,1,40.000000
2025-04-17 20:24:51.207,,,,,,,,,,,,,,,,,,,,,,,,,,,,,,,,,,,,,,,,,,/muse/elements/blink
2025-04-17 20:24:51.812,0.4678994999591202,0.5976689373587444,0,0.6654086701057762,0.2654130341730065,0.6324158347657968,0,0.2043511490992905,0.5542621724090685,0.6127299822951883,0,0.695519403142098,0.2821048963797546,0.7649324074634903,0,0.9351594128102745,0.1563867139033037,0.3906549379282749,0,0.3817571679750558,777.2527472527473,14.50549450549451,1049.230769230769,772.8205128205128,589.4871794871796,0.378296,0.206360,0.914246,0.560760,-1.263580,-0.014954,577802.197802,105827252.747253,83525860.805861,81.132561,1,1,4,2,1,40.000000
2025-04-17 20:24:51.951,,,,,,,,,,,,,,,,,,,,,,,,,,,,,,,,,,,,,,,,,,/muse/elements/blink
2025-04-17 20:24:52.813,0.4678994999591202,0.5976689373587444,0,0.6654086701057762,0.2654130341730065,0.6324158347657968,0,0.2043511490992905,0.5542621724090685,0.6127299822951883,0,0.695519403142098,0.2821048963797546,0.7649324074634903,0,0.9351594128102745,0.1563867139033037,0.3906549379282749,0,0.3817571679750558,805.4578754578755,775.2380952380953,865.0915750915751,805.8608058608058,778.4615384615385,0.374146,0.204773,0.913635,0.545807,-1.570129,0.104675,573772.893773,105620146.520147,83435604.395604,82.437027,1,2,2,2,2,40.000000
2025-04-17 20:24:53.807,0.5496271698664096,0.5976689373587444,0,0.3367889684364096,0.7241626164798033,0.6324158347657968,0,0.5955004096967753,0.9266454445547183,0.6127299822951883,0,1.195778918805937,0.6642326813536877,0.7649324074634903,0,1.02312389850914,0.2077569889552824,0.3906549379282749,0,0.465826027704674,819.5604395604396,1405.824175824176,1055.274725274725,798.6080586080586,587.4725274725275,0.375305,0.204651,0.915344,0.411224,-1.263580,-0.500946,569743.589744,105412234.432234,83155970.695971,84.306221,1,1,4,2,1,40.000000
2025-04-17 20:24:54.157,,,,,,,,,,,,,,,,,,,,,,,,,,,,,,,,,,,,,,,,,,/muse/elements/blink
2025-04-17 20:24:54.670,,,,,,,,,,,,,,,,,,,,,,,,,,,,,,,,,,,,,,,,,,/muse/elements/blink
2025-04-17 20:24:54.809,0.801470375704747,0.5976689373587444,0,0.3349856797992537,0.9497767071359532,0.6324158347657968,0,0.6780287472684224,0.9409095697075828,0.6127299822951883,0,1.175068608821368,0.7295930091487136,0.7649324074634903,0,1.0752246634296,0.1771412874739678,0.3906549379282749,0,0.4909198026466725,774.0293040293041,1603.260073260073,853.0036630036631,778.8644688644689,644.2857142857143,0.376343,0.207642,0.912903,0.777588,-1.525269,-0.022430,572967.032967,105437216.117216,83306666.666667,85.117134,1,1,4,2,1,40.000000
2025-04-17 20:24:55.814,0.9587704443733972,0.5976689373587444,0,0.3688734210609862,1.125333019613367,0.6324158347657968,0,0.7442527548781102,0.9304492090647254,0.6127299822951883,0,1.163564078726842,0.8712624542067252,0.7649324074634903,0,1.160771376114288,0.1402319025920962,0.3906549379282749,0,0.5113792143333403,799.8168498168499,612.0512820512821,893.2967032967033,811.5018315018315,663.6263736263736,0.378418,0.194458,0.911621,-0.052338,-1.525269,-0.276642,572967.032967,105664468.864469,83391282.051282,85.163460,1,1,4,2,1,40.000000
2025-04-17 20:24:56.316,,,,,,,,,,,,,,,,,,,,,,,,,,,,,,,,,,,,,,,,,,/muse/elements/blink
2025-04-17 20:24:56.807,0.9587704443733972,0.5976689373587444,0,0.3688734210609862,1.125333019613367,0.6324158347657968,0,0.7442527548781102,0.9304492090647254,0.6127299822951883,0,1.163564078726842,0.8712624542067252,0.7649324074634903,0,1.160771376114288,0.1402319025920962,0.3906549379282749,0,0.5113792143333403,819.96336996337,1529.52380952381,992.014652014652,807.4725274725275,633.8095238095239,0.373291,0.202698,0.911865,0.112152,-1.450500,-0.201874,574578.754579,105654798.534799,83475897.435897,82.730309,1,2,4,2,2,40.000000
2025-04-17 20:24:57.621,,,,,,,,,,,,,,,,,,,,,,,,,,,,,,,,,,,,,,,,,,/muse/elements/blink
2025-04-17 20:24:57.807,0.9587704443733972,0.5976689373587444,0,0.3688734210609862,1.125333019613367,0.6324158347657968,0,0.7442527548781102,0.9304492090647254,0.6127299822951883,0,1.163564078726842,0.8712624542067252,0.7649324074634903,0,1.160771376114288,0.1402319025920962,0.3906549379282749,0,0.5113792143333403,797.3992673992674,1427.582417582418,753.0769230769231,809.0842490842491,813.919413919414,0.373291,0.200378,0.914856,0.418701,-1.368256,-0.149536,574578.754579,105517802.197802,83391282.051282,82.280190,1,2,4,2,2,40.000000
2025-04-17 20:24:58.133,,,,,,,,,,,,,,,,,,,,,,,,,,,,,,,,,,,,,,,,,,/muse/elements/blink
2025-04-17 20:24:58.517,,,,,,,,,,,,,,,,,,,,,,,,,,,,,,,,,,,,,,,,,,/muse/elements/blink
2025-04-17 20:24:58.807,0.9587704443733972,0.5976689373587444,0,0.3688734210609862,1.125333019613367,0.6324158347657968,0,0.7442527548781102,0.9304492090647254,0.6127299822951883,0,1.163564078726842,0.8712624542067252,0.7649324074634903,0,1.160771376114288,0.1402319025920962,0.3906549379282749,0,0.5113792143333403,796.996336996337,1335.311355311355,866.7032967032967,775.6410256410256,651.5384615384615,0.373596,0.202332,0.923523,1.061707,-1.390686,0.171967,576190.476190,105545201.465201,83491208.791209,83.969460,1,2,4,2,2,40.000000
2025-04-17 20:24:59.116,,,,,,,,,,,,,,,,,,,,,,,,,,,,,,,,,,,,,,,,,,/muse/elements/blink
2025-04-17 20:24:59.807,0.9587704443733972,0.5976689373587444,0,0.3688734210609862,1.125333019613367,0.6324158347657968,0,0.7442527548781102,0.9304492090647254,0.6127299822951883,0,1.163564078726842,0.8712624542067252,0.7649324074634903,0,1.160771376114288,0.1402319025920962,0.3906549379282749,0,0.5113792143333403,826.8131868131868,1401.391941391941,911.4285714285714,821.1721611721612,701.0989010989011,0.369202,0.202087,0.914673,0.785065,-1.443024,-0.299072,576996.336996,105555677.655678,83263150.183150,85.352982,1,2,4,2,2,40.000000
2025-04-17 20:25:00.760,,,,,,,,,,,,,,,,,,,,,,,,,,,,,,,,,,,,,,,,,,/muse/elements/blink
2025-04-17 20:25:00.813,0.9587704443733972,0.5976689373587444,0,0.3688734210609862,1.125333019613367,0.6324158347657968,0,0.7442527548781102,0.9304492090647254,0.6127299822951883,0,1.163564078726842,0.8712624542067252,0.7649324074634903,0,1.160771376114288,0.1402319025920962,0.3906549379282749,0,0.5113792143333403,775.2380952380953,430.3296703296704,875.5677655677656,780.4761904761905,720.4395604395604,0.370422,0.199524,0.915283,0.351410,-1.457977,-0.014954,581831.501832,105742637.362637,83600000.000000,85.352982,1,2,4,2,2,40.000000
2025-04-17 20:25:01.467,,,,,,,,,,,,,,,,,,,,,,,,,,,,,,,,,,,,,,,,,,/muse/elements/blink
2025-04-17 20:25:01.807,0.9587704443733972,0.5976689373587444,0,0.3688734210609862,1.125333019613367,0.6324158347657968,0,0.7442527548781102,0.9304492090647254,0.6127299822951883,0,1.163564078726842,0.8712624542067252,0.7649324074634903,0,1.160771376114288,0.1402319025920962,0.3906549379282749,0,0.5113792143333403,805.8608058608058,985.1648351648352,842.1245421245421,794.5787545787546,757.5091575091575,0.365234,0.199463,0.919800,0.396271,-1.338348,0.059814,584249.084249,105952161.172161,83793406.593407,85.352982,1,2,4,2,2,40.000000
2025-04-17 20:25:02.807,0.9587704443733972,0.5976689373587444,0,0.3688734210609862,1.125333019613367,0.6324158347657968,0,0.7442527548781102,0.9304492090647254,0.6127299822951883,0,1.163564078726842,0.8712624542067252,0.7649324074634903,0,1.160771376114288,0.1402319025920962,0.3906549379282749,0,0.5113792143333403,829.6336996336996,1215.641025641026,1020.622710622711,806.2637362637363,679.3406593406594,0.362488,0.202881,0.923279,0.650482,-1.091614,-0.343933,585054.945055,105998095.238095,83915091.575092,85.352982,1,2,2,2,2,40.000000
2025-04-17 20:25:03.196,,,,,,,,,,,,,,,,,,,,,,,,,,,,,,,,,,,,,,,,,,/muse/elements/blink
2025-04-17 20:25:03.807,0.1931078072247687,0.5976689373587444,0,0.3688734210609862,0.6030186778469599,0.6324158347657968,0,0.7442527548781102,0.53855423977175,0.6127299822951883,0,1.163564078726842,0.432242200194077,0.7649324074634903,0,1.160771376114288,0.07710606967208428,0.3906549379282749,0,0.5113792143333403,801.4285714285714,814.3223443223443,919.8901098901099,798.6080586080586,736.5567765567765,0.368896,0.200256,0.913025,1.099091,-1.450500,-0.328979,586666.666667,105787765.567766,84045641.025641,85.352982,1,1,2,2,1,40.000000
2025-04-17 20:25:04.501,,,,,,,,,,,,,,,,,,,,,,,,,,,,,,,,,,,,,,,,,,/muse/elements/blink
2025-04-17 20:25:04.807,0.1931078072247687,0.5976689373587444,0,0.3688734210609862,0.6030186778469599,0.6324158347657968,0,0.7442527548781102,0.53855423977175,0.6127299822951883,0,1.163564078726842,0.432242200194077,0.7649324074634903,0,1.160771376114288,0.07710606967208428,0.3906549379282749,0,0.5113792143333403,805.4578754578755,842.5274725274726,760.7326007326008,798.6080586080586,740.1831501831502,0.362366,0.203613,0.921082,0.478516,-1.166382,-0.224304,585054.945055,106026300.366300,84211648.351648,84.956619,1,1,2,2,1,40.000000
2025-04-17 20:25:05.807,0.1931078072247687,0.5976689373587444,0,0.3688734210609862,0.6030186778469599,0.6324158347657968,0,0.7442527548781102,0.53855423977175,0.6127299822951883,0,1.163564078726842,0.432242200194077,0.7649324074634903,0,1.160771376114288,0.07710606967208428,0.3906549379282749,0,0.5113792143333403,830.0366300366301,1077.838827838828,975.0915750915751,822.3809523809524,599.5604395604396,0.369141,0.206970,0.917664,1.218719,-2.512207,0.927124,581831.501832,106005347.985348,83952161.172161,81.522530,1,2,2,2,2,40.000000
2025-04-17 20:25:06.813,0.4719636726562207,0.5976689373587444,0,0.6306075247646395,0.3135837841707579,0.6324158347657968,0,0.07640254311906478,0.8729123920482283,0.6127299822951883,0,1.06696634579277,0.5658307025931966,0.7649324074634903,0,0.9607793330384292,0.09592454993639359,0.3906549379282749,0,0.5781501661854602,761.941391941392,883.6263736263736,877.5824175824176,771.6117216117216,620.9157509157509,0.369385,0.208496,0.909912,0.037384,-1.525269,-0.231781,574578.754579,105725714.285714,83471868.131868,79.992668,1,1,2,2,1,40.000000
2025-04-17 20:25:07.816,0.5654020815386617,0.5976689373587444,0,0.4962403494250325,0.287290335440125,0.6324158347657968,0,0.5449719187072043,0.8804084802390546,0.6127299822951883,0,1.112482261862319,0.5547881120754584,0.7649324074634903,0,0.813025355125967,0.02530330687060715,0.3906549379282749,0,0.5245581032148701,830.4395604395604,1250.29304029304,1046.007326007326,832.8571428571429,586.2637362637363,0.363098,0.205994,0.918884,0.687866,-2.100983,0.037384,581025.641026,105758754.578755,83453333.333333,79.829552,1,1,2,2,1,40.000000
2025-04-17 20:25:07.892,,,,,,,,,,,,,,,,,,,,,,,,,,,,,,,,,,,,,,,,,,/muse/elements/blink
2025-04-17 20:25:08.807,0.7716088734403674,0.5976689373587444,0,0.4423181724148343,0.192117056583182,0.6324158347657968,0,0.6780072767082517,0.3726500954229018,0.6127299822951883,0,0.7813857249245248,0.5526154049261267,0.7649324074634903,0,0.7985738992899717,0.09901662998473386,0.3906549379282749,0,0.5972275128056956,738.974358974359,399.3040293040293,754.2857142857143,782.893772893773,1023.846153846154,0.375183,0.200928,0.920776,0.762634,-0.710297,-0.254211,566520.146520,105687032.967033,83044761.904762,80.654472,1,1,2,2,1,40.000000
2025-04-17 20:25:09.807,1.217809128968267,0.5976689373587444,0,1.024826889286608,0.9369694985611222,0.6324158347657968,0,0.4853760465004718,1.045581699664543,0.6127299822951883,0,1.173907786761855,0.6643591898667542,0.7649324074634903,0,1.015188948025214,0.4188652134837476,0.3906549379282749,0,0.5045791585812138,744.6153846153846,1038.351648351648,929.5604395604396,753.4798534798535,594.3223443223443,0.373901,0.202820,0.913757,0.628052,-0.747681,-0.246735,568131.868132,105516996.336996,82921465.201465,81.350723,1,1,4,2,1,40.000000
2025-04-17 20:25:10.810,1.121979090146968,0.5976689373587444,0,0.8920298319913226,0.7938030375731228,0.6324158347657968,0,0.5128533792762746,1.03713581564861,0.6127299822951883,0,1.12124130060488,0.6617074655243789,0.7649324074634903,0,0.8951188661583143,0.3833309176207362,0.3906549379282749,0,0.4554653697753664,807.4725274725275,1120.952380952381,951.7216117216118,802.2344322344322,573.3699633699634,0.377686,0.208252,0.918091,0.687866,-2.228088,0.583191,564102.564103,105379194.139194,82794945.054945,82.198753,1,1,4,2,1,40.000000
2025-04-17 20:25:11.806,0.847971554453933,0.5976689373587444,0,0.1964209283135668,0.498370461945163,0.6324158347657968,0,0.5588739054653223,0.7100090808987748,0.6127299822951883,0,0.9588780843192175,0.6004736155915191,0.7649324074634903,0,0.7640905435956554,0.2519006442175862,0.3906549379282749,0,0.5522181866366497,772.4175824175825,366.2637362637363,708.7545787545788,784.1025641025641,990.4029304029305,0.385498,0.204895,0.911804,0.224304,-1.719666,-0.403748,563296.703297,105389670.329670,82665201.465201,81.669518,1,1,4,2,1,40.000000
2025-04-17 20:25:12.763,,,,,,,,,,,,,,,,,,,,,,,,,,,,,,,,,,,,,,,,,,/muse/elements/blink
2025-04-17 20:25:12.813,1.069919892818918,0.5976689373587444,0,0.7259182515490351,0.4625839445260717,0.6324158347657968,0,0.6408374718806691,0.7270853046159007,0.6127299822951883,0,0.8536301065925118,0.4970829573238611,0.7649324074634903,0,0.7482436576781998,0.02037599735713229,0.3906549379282749,0,0.3376712303573667,878.3882783882784,611.2454212454213,854.2124542124542,842.1245421245421,807.8754578754579,0.370789,0.204346,0.917297,-0.089722,-0.403748,-1.600037,567326.007326,105353406.593407,82624102.564103,80.781731,1,1,4,2,1,40.000000
2025-04-17 20:25:13.551,,,,,,,,,,,,,,,,,,,,,,,,,,,,,,,,,,,,,,,,,,/muse/elements/blink
2025-04-17 20:25:13.818,1.191764273873761,0.5976689373587444,0,0.9047748891054865,0.5558823173151438,0.6324158347657968,0,0.6013244280537127,0.7270853046159007,0.6127299822951883,0,0.6117753885325447,0.5251387001257019,0.7649324074634903,0,0.6896542054181422,-0.061891816749547,0.3906549379282749,0,0.3472469571358557,821.5750915750916,1249.89010989011,924.3223443223443,803.8461538461539,798.2051282051282,0.367004,0.200134,0.916321,1.600037,-1.443024,0.037384,573772.893773,105609670.329670,82805421.245421,79.128105,1,1,4,2,1,40.000000
2025-04-17 20:25:14.595,,,,,,,,,,,,,,,,,,,,,,,,,,,,,,,,,,,,,,,,,,/muse/elements/blink
2025-04-17 20:25:14.806,1.191764273873761,0.5976689373587444,0,0.9047748891054865,0.5558823173151438,0.6324158347657968,0,0.6013244280537127,0.7270853046159007,0.6127299822951883,0,0.6117753885325447,0.5251387001257019,0.7649324074634903,0,0.6896542054181422,-0.061891816749547,0.3906549379282749,0,0.3472469571358557,786.5201465201466,222.014652014652,714.7985347985348,794.1758241758242,1056.080586080586,0.370117,0.202820,0.913391,0.149536,-1.495361,-0.493469,562490.842491,105052820.512821,81871428.571429,80.557571,1,1,4,2,1,40.000000
2025-04-17 20:25:15.582,,,,,,,,,,,,,,,,,,,,,,,,,,,,,,,,,,,,,,,,,,/muse/elements/blink
2025-04-17 20:25:15.806,0.5699147424731421,0.5976689373587444,0,0.9047748891054865,0.5404479618301247,0.6324158347657968,0,0.6013244280537127,0.6736434047455457,0.6127299822951883,0,0.6117753885325447,0.7003125516610962,0.7649324074634903,0,0.6896542054181422,0.1262049886021158,0.3906549379282749,0,0.3472469571358557,746.2271062271062,860.2564102564103,911.8315018315019,775.2380952380953,640.6593406593407,0.371948,0.207275,0.913269,0.515900,-1.764526,-0.044861,568937.728938,105032673.992674,82342857.142857,82.219269,1,1,4,2,1,40.000000
2025-04-17 20:25:16.095,,,,,,,,,,,,,,,,,,,,,,,,,,,,,,,,,,,,,,,,,,/muse/elements/blink
