TimeStamp,Delta_TP9,Delta_AF7,Delta_AF8,Delta_TP10,Theta_TP9,Theta_AF7,Theta_AF8,Theta_TP10,Alpha_TP9,Alpha_AF7,Alpha_AF8,Alpha_TP10,Beta_TP9,Beta_AF7,Beta_AF8,Beta_TP10,Gamma_TP9,Gamma_AF7,Gamma_AF8,Gamma_TP10,RAW_TP9,RAW_AF7,RAW_AF8,RAW_TP10,AUX_RIGHT,Accelerometer_X,Accelerometer_Y,Accelerometer_Z,Gyro_X,Gyro_Y,Gyro_Z,PPG_Ambient,PPG_IR,PPG_Red,Heart_Rate,HeadBandOn,HSI_TP9,HSI_AF7,HSI_AF8,HSI_TP10,Battery,Elements
2025-05-02 16:25:48.569,,,,,,,,,,,,,,,,,,,,,,,,,,,,,,,,,,,,,,,,,,/muse/event/connected Muse-1C98
2025-05-02 16:25:48.640,,,,,,,,,,,,,,,,,,,,,,,,,,,,,,,,,,,,,,,,,,/muse/elements/blink
2025-05-02 16:25:49.287,,,,,,,,,,,,,,,,,,,,,,,,,,,,,,,,,,,,,,,,,,/muse/elements/blink
2025-05-02 16:25:49.570,1.165738195077062,0.984478750230196,0,0.7230363383421714,0.673482884976413,0.7413446866400726,0,0.6320318630037731,0.4825305681295466,0.737788455174988,0,0.5609063088432271,0.4191562574422387,0.4789726104140323,0,0.7738356320267443,0.267811489827319,-0.3909011589283972,0,0.3861189338345601,832.8571428571429,774.0293040293041,815.934065934066,894.908424908425,724.8717948717949,-0.052979,0.010559,1.002869,0.179443,-1.241150,-0.710297,1236996.336996,201427326.007326,130832307.692308,60.931923,1,1,1,2,1,90.000000
2025-05-02 16:25:50.396,,,,,,,,,,,,,,,,,,,,,,,,,,,,,,,,,,,,,,,,,,/muse/elements/blink
2025-05-02 16:25:50.570,1.165738195077062,0.6712095831301367,0,0.7230363383421714,0.673482884976413,0.800882266823595,0,0.6320318630037731,0.4825305681295466,0.7731224104378825,0,0.5609063088432271,0.4191562574422387,0.4447231421829346,0,0.7738356320267443,0.267811489827319,-0.3048687980393522,0,0.3861189338345601,522.6007326007326,840.5128205128206,760.7326007326008,473.4432234432235,684.5787545787546,-0.049316,0.005432,1.005249,0.732727,-1.614990,0.224304,1203956.043956,201042124.542125,130693699.633700,60.610668,1,2,1,2,2,90.000000
2025-05-02 16:25:50.822,,,,,,,,,,,,,,,,,,,,,,,,,,,,,,,,,,,,,,,,,,/muse/elements/blink
2025-05-02 16:25:51.205,,,,,,,,,,,,,,,,,,,,,,,,,,,,,,,,,,,,,,,,,,/muse/elements/blink
2025-05-02 16:25:51.576,1.165738195077062,0.6712095831301367,0,0.7230363383421714,0.673482884976413,0.800882266823595,0,0.6320318630037731,0.4825305681295466,0.7731224104378825,0,0.5609063088432271,0.4191562574422387,0.4447231421829346,0,0.7738356320267443,0.267811489827319,-0.3048687980393522,0,0.3861189338345601,804.2490842490843,777.2527472527473,855.0183150183151,809.8901098901099,582.6373626373627,-0.052063,0.008362,1.005798,0.628052,-1.854248,0.149536,1240219.780220,201200879.120879,130973333.333333,60.610668,1,2,1,2,2,90.000000
2025-05-02 16:25:52.570,1.165738195077062,0.6712095831301367,0,0.7230363383421714,0.673482884976413,0.800882266823595,0,0.6320318630037731,0.4825305681295466,0.7731224104378825,0,0.5609063088432271,0.4191562574422387,0.4447231421829346,0,0.7738356320267443,0.267811489827319,-0.3048687980393522,0,0.3861189338345601,817.5457875457876,751.8681318681319,872.7472527472528,892.893772893773,722.8571428571429,-0.046997,0.016113,1.005859,0.844879,-1.951447,0.508423,1285347.985348,201329010.989011,130918534.798535,60.610668,1,2,1,2,2,90.000000
2025-05-02 16:25:53.020,,,,,,,,,,,,,,,,,,,,,,,,,,,,,,,,,,,,,,,,,,/muse/elements/blink
2025-05-02 16:25:53.576,1.165738195077062,0.4639162770935177,0,0.7230363383421714,0.673482884976413,0.5322313879191349,0,0.6320318630037731,0.4825305681295466,0.4840488416789746,0,0.5609063088432271,0.4191562574422387,0.2571734828155273,0,0.7738356320267443,0.267811489827319,-0.1411690155675337,0,0.3861189338345601,875.1648351648352,773.6263736263736,921.0989010989011,862.6739926739926,964.2124542124542,-0.051086,0.011047,1.006592,0.418701,-1.884155,-0.112152,1274871.794872,201368498.168498,130858095.238095,60.610668,1,2,1,2,2,90.000000
2025-05-02 16:25:54.570,1.165738195077062,0.8146763496573948,0,0.7230363383421714,0.673482884976413,0.857996594123611,0,0.6320318630037731,0.4825305681295466,0.8256921894673597,0,0.5609063088432271,0.4191562574422387,0.3642705007531424,0,0.7738356320267443,0.267811489827319,-0.3078662072437052,0,0.3861189338345601,854.2124542124542,772.8205128205128,1008.937728937729,889.2673992673992,643.4798534798535,-0.053223,0.009277,1.004150,0.441132,-0.732727,0.112152,1224102.564103,201062271.062271,130787179.487179,60.610668,1,2,1,2,2,90.000000
2025-05-02 16:25:54.575,,,,,,,,,,,,,,,,,,,,,,,,,,,,,,,,,,,,,,,,,,/muse/elements/blink
2025-05-02 16:25:54.986,,,,,,,,,,,,,,,,,,,,,,,,,,,,,,,,,,,,,,,,,,/muse/elements/blink
2025-05-02 16:25:55.575,1.165738195077062,0.8864352617736263,0,0.7230363383421714,0.673482884976413,0.7564685280843896,0,0.6320318630037731,0.4825305681295466,0.8256921894673597,0,0.5609063088432271,0.4191562574422387,0.3304626827583571,0,0.7738356320267443,0.267811489827319,-0.3126571506941265,0,0.3861189338345601,889.6703296703297,778.0586080586081,1508.168498168498,1622.600732600733,1475.934065934066,-0.050354,0.014709,1.002563,0.964508,-1.390686,0.628052,1285347.985348,200889010.989011,130859706.959707,60.610668,1,2,1,2,2,90.000000
2025-05-02 16:25:55.609,,,,,,,,,,,,,,,,,,,,,,,,,,,,,,,,,,,,,,,,,,/muse/elements/blink
2025-05-02 16:25:56.081,,,,,,,,,,,,,,,,,,,,,,,,,,,,,,,,,,,,,,,,,,/muse/elements/blink
2025-05-02 16:25:56.570,1.165738195077062,0.9473985695525762,0,0.7230363383421714,0.673482884976413,0.6826223429498586,0,0.6320318630037731,0.4825305681295466,0.7040817264369755,0,0.5609063088432271,0.4191562574422387,0.3231771568863085,0,0.7738356320267443,0.267811489827319,-0.3166488744729543,0,0.3861189338345601,755.0915750915751,755.8974358974359,402.9304029304029,749.8534798534798,597.1428571428571,-0.054993,0.017517,1.006714,0.680389,-1.689758,0.149536,1208791.208791,200822124.542125,130904029.304029,60.610668,1,2,1,2,4,90.000000
2025-05-02 16:25:57.578,1.165738195077062,0.8986744091652558,0,0.7230363383421714,0.673482884976413,0.7810747979784035,0,0.6320318630037731,0.4825305681295466,0.9845349551079765,0,0.5609063088432271,0.4191562574422387,0.2628422213627433,0,0.7738356320267443,0.267811489827319,-0.1540845268288968,0,0.3861189338345601,816.7399267399268,761.1355311355312,633.0036630036631,808.6813186813187,550.4029304029305,-0.055725,0.015137,0.998474,0.732727,-1.263580,0.194397,1075824.175824,200964761.904762,130973333.333333,59.679951,1,2,1,1,2,90.000000
2025-05-02 16:25:58.436,,,,,,,,,,,,,,,,,,,,,,,,,,,,,,,,,,,,,,,,,,/muse/elements/blink
2025-05-02 16:25:58.584,1.165738195077062,1.02203957010389,0,0.7230363383421714,0.673482884976413,0.610360987568917,0,0.6320318630037731,0.4825305681295466,1.072806848768788,0,0.5609063088432271,0.4191562574422387,0.3228149994785505,0,0.7738356320267443,0.267811489827319,-0.2246145239404029,0,0.3861189338345601,805.8608058608058,757.1062271062272,466.1904761904762,827.2161172161173,980.7326007326008,-0.053223,0.015259,1.003967,0.471039,-1.233673,0.216827,1068571.428571,200966373.626374,130974139.194139,59.679951,1,2,1,2,2,90.000000
2025-05-02 16:25:59.259,,,,,,,,,,,,,,,,,,,,,,,,,,,,,,,,,,,,,,,,,,/muse/elements/blink
2025-05-02 16:25:59.570,1.165738195077062,0.9230612319498788,0,1.858175303678189,0.673482884976413,0.5686083806810773,0,1.610542326720103,0.4825305681295466,0.8865481403852472,0,1.388904953997895,0.4191562574422387,0.3832474045438454,0,1.375454849731104,0.267811489827319,-0.177984904949661,0,0.1497231759206938,856.6300366300367,761.5384615384615,767.985347985348,822.3809523809524,642.2710622710623,-0.052490,0.015442,1.002380,0.530853,-1.420593,-0.239258,1034725.274725,200882564.102564,130923369.963370,59.230820,1,1,1,2,1,90.000000
2025-05-02 16:25:59.632,,,,,,,,,,,,,,,,,,,,,,,,,,,,,,,,,,,,,,,,,,/muse/elements/blink
2025-05-02 16:25:59.872,,,,,,,,,,,,,,,,,,,,,,,,,,,,,,,,,,,,,,,,,,/muse/elements/blink
2025-05-02 16:26:00.580,1.165738195077062,1.032042962828094,0,1.858175303678189,0.673482884976413,0.9855746947201824,0,1.610542326720103,0.4825305681295466,0.8116271106194248,0,1.388904953997895,0.4191562574422387,0.4751880970140714,0,1.375454849731104,0.267811489827319,-0.07811412577907331,0,0.1497231759206938,833.2600732600733,746.2271062271062,869.1208791208792,901.7582417582418,617.2893772893773,-0.048645,0.019714,1.002625,0.598145,-1.024323,0.508423,1163663.003663,201171062.271062,130921758.241758,58.491924,1,1,1,2,1,90.000000
2025-05-02 16:26:01.582,1.165738195077062,1.196823289809885,0,1.858175303678189,0.673482884976413,1.198407286543805,0,1.610542326720103,0.4825305681295466,0.8116271106194248,0,1.388904953997895,0.4191562574422387,0.5476372611420317,0,1.375454849731104,0.267811489827319,-0.04191933103200302,0,0.1497231759206938,820.7692307692308,758.7179487179487,668.8644688644689,827.6190476190476,977.1062271062272,-0.051025,0.018921,1.005432,0.897217,-1.061707,0.650482,1114505.494505,201225054.945055,130841978.021978,68.551842,1,1,1,2,1,90.000000
2025-05-02 16:26:02.306,,,,,,,,,,,,,,,,,,,,,,,,,,,,,,,,,,,,,,,,,,/muse/elements/blink
2025-05-02 16:26:02.569,0.9250991586315476,0.6399458994737184,0,1.858175303678189,0.8352050819499558,0.4308521600071159,0,1.610542326720103,0.5132316827234202,0.4101197534911528,0,1.388904953997895,0.3304537505394258,0.3463522174288934,0,1.375454849731104,0.0027562224157664,-0.3636273984246256,0,0.1497231759206938,819.96336996337,763.5531135531136,788.5347985347986,845.3479853479854,701.5018315018315,-0.052002,0.019653,1.001038,0.343933,-2.370148,-0.209351,1087106.227106,200950256.410256,130624395.604396,87.726471,1,1,1,2,1,90.000000
2025-05-02 16:26:02.679,,,,,,,,,,,,,,,,,,,,,,,,,,,,,,,,,,,,,,,,,,/muse/elements/blink
2025-05-02 16:26:03.570,0.9250991586315476,0.6399458994737184,0,1.858175303678189,0.8352050819499558,0.4308521600071159,0,1.610542326720103,0.5132316827234202,0.4101197534911528,0,1.388904953997895,0.3304537505394258,0.3463522174288934,0,1.375454849731104,0.0027562224157664,-0.3636273984246256,0,0.1497231759206938,827.6190476190476,771.6117216117216,820.3663003663004,805.4578754578755,791.7582417582418,-0.053711,0.017700,1.005066,0.456085,-1.173859,0.306549,1085494.505495,201109816.849817,130674358.974359,87.726471,1,1,1,2,1,90.000000
2025-05-02 16:26:04.570,0.8035842576339044,0.9076905460613326,0,1.858175303678189,0.07593174762455782,0.9341290600684148,0,1.610542326720103,0.6012618516969671,0.7643919256478292,0,1.388904953997895,0.5553117682158336,0.4537208261154111,0,1.375454849731104,0.09524559378517726,-0.411693674473006,0,0.1497231759206938,801.8315018315019,763.956043956044,794.981684981685,813.1135531135532,813.919413919414,-0.052368,0.020813,1.005554,0.755157,-1.809387,-0.261688,1124175.824176,200768937.728938,130561538.461538,87.726471,1,1,1,2,1,90.000000
2025-05-02 16:26:04.928,,,,,,,,,,,,,,,,,,,,,,,,,,,,,,,,,,,,,,,,,,/muse/elements/blink
2025-05-02 16:26:05.570,0.9461179758669163,1.02427519428525,0,1.858175303678189,0.08339360480959429,1.115953130762685,0,1.610542326720103,0.6052259366570617,0.7599266393413814,0,1.388904953997895,0.6051568000317694,0.4787981754697032,0,1.375454849731104,0.07662725213903694,-0.4197890944409335,0,0.1497231759206938,819.5604395604396,759.5238095238095,796.996336996337,793.3699633699634,659.1941391941392,-0.053833,0.023071,1.005432,0.710297,-1.786957,-0.157013,1114505.494505,201753699.633700,130918534.798535,87.726471,1,1,1,2,1,90.000000
2025-05-02 16:26:06.570,1.073544073152941,0.7294949806811813,0,1.858175303678189,0.07667217131509789,0.5364870670342047,0,1.610542326720103,0.5351064976149709,0.6577343949580066,0,1.388904953997895,0.6848902482928592,0.6567545111556373,0,1.375454849731104,0.08863520481082945,-0.2625162648068607,0,0.1497231759206938,826.007326007326,776.8498168498169,970.6593406593407,794.1758241758242,693.4432234432235,-0.051331,0.021057,1.005249,0.680389,-1.248627,0.194397,1100805.860806,201636849.816850,130883076.923077,87.726471,1,1,1,2,1,90.000000
2025-05-02 16:26:07.369,,,,,,,,,,,,,,,,,,,,,,,,,,,,,,,,,,,,,,,,,,/muse/elements/blink
2025-05-02 16:26:07.584,1.135363322244458,0.7397584684763503,0,1.858175303678189,0.864857092781091,0.5900051814241516,0,1.610542326720103,0.7213692909796133,0.6784382621439889,0,1.388904953997895,0.5557978779233403,0.5875903429422589,0,1.375454849731104,-0.07536033710477208,-0.3303896320896981,0,0.1497231759206938,825.2014652014652,773.2234432234433,537.5091575091575,838.4981684981685,813.1135531135532,-0.058960,0.021851,1.002441,0.590668,-1.398163,-0.209351,1029084.249084,201578827.838828,130941098.901099,87.726471,1,1,1,2,1,90.000000
2025-05-02 16:26:08.258,,,,,,,,,,,,,,,,,,,,,,,,,,,,,,,,,,,,,,,,,,/muse/elements/blink
2025-05-02 16:26:08.570,1.211551944746399,1.035336534820542,0,1.858175303678189,0.8911820491852178,0.6997697924343637,0,1.610542326720103,0.7117823420822477,0.6895703624297095,0,1.388904953997895,0.5701555542847115,0.2620417978432313,0,1.375454849731104,-0.0530185744440384,-0.3556830976856311,0,0.1497231759206938,818.3516483516484,768.7912087912088,830.8424908424909,802.6373626373627,634.2124542124542,-0.059570,0.021790,1.002747,0.568237,-1.241150,-0.149536,900952.380952,201970476.190476,131113553.113553,87.726471,1,1,1,2,1,90.000000
2025-05-02 16:26:09.570,1.211551944746399,1.032831634444607,0,1.858175303678189,0.8911820491852178,0.6999736226626806,0,1.610542326720103,0.7117823420822477,0.5548519689451153,0,1.388904953997895,0.5701555542847115,0.2600883183864487,0,1.375454849731104,-0.0530185744440384,-0.3464077500622338,0,0.1497231759206938,837.6923076923077,767.5824175824176,870.7326007326008,820.3663003663004,700.2930402930403,-0.055603,0.019836,1.002747,0.515900,-1.585083,-0.306549,973479.853480,201686007.326007,130934652.014652,87.726471,1,2,1,2,2,90.000000
2025-05-02 16:26:10.573,0.7856736909750186,1.068698446846911,0,0.8520610234657684,0.8324993382070304,0.4281474829546268,0,0.9713828829927765,0.6138064671689604,0.7778433852380862,0,1.015251128699659,0.3698010903562489,0.2956444359166411,0,0.7805734489653067,0.06196131430009496,-0.2492364771281369,0,0.2076741972277259,552.8205128205128,854.6153846153846,662.014652014652,550.4029304029305,951.3186813186813,-0.062561,0.023071,1.007446,0.463562,-1.203766,-0.403748,1046813.186813,200963956.043956,130666300.366300,87.726471,1,1,1,2,1,90.000000
2025-05-02 16:26:10.691,,,,,,,,,,,,,,,,,,,,,,,,,,,,,,,,,,,,,,,,,,/muse/elements/blink
2025-05-02 16:26:11.570,0.9871386185210109,1.302208325733702,0,0.9166357161805749,1.100797174566171,0.6293973044265138,0,1.171899951086655,0.4955552325799175,0.6603417866798775,0,1.008943121157536,0.4438909215795469,0.2361260798594555,0,0.8848152276727044,-0.08020079786213409,-0.3915050959280971,0,0.08436158555136992,825.6043956043957,771.2087912087912,739.3772893772893,793.3699633699634,610.0366300366301,-0.056458,0.023804,1.004028,0.441132,-1.764526,0.044861,896923.076923,201200073.260073,130868571.428571,87.726471,1,1,1,2,1,90.000000
2025-05-02 16:26:12.570,0.8982860878195538,0.9581945891671656,0,1.229392644946464,0.610506588435027,0.8037616111712572,0,0.07292906171614988,0.225047230343271,0.472506092195446,0,0.3941906172462886,0.300147935672417,0.279640937638109,0,0.5788278082541608,-0.119435394159152,-0.3289539231950943,0,-0.1269272387753697,845.7509157509157,780.4761904761905,674.5054945054945,815.1282051282052,1156.813186813187,-0.056763,0.019043,1.003723,0.493469,-2.407532,0.059814,844542.124542,201156556.776557,130880659.340659,87.726471,1,1,1,2,1,90.000000
2025-05-02 16:26:12.955,,,,,,,,,,,,,,,,,,,,,,,,,,,,,,,,,,,,,,,,,,/muse/elements/blink
2025-05-02 16:26:13.570,0.8982860878195538,0.6953332994696207,0,1.306590867200392,0.610506588435027,0.7838529555687879,0,0.1243510531604193,0.225047230343271,0.8244628825971798,0,0.3636693840740694,0.300147935672417,0.3329260731310564,0,0.5474329477975836,-0.119435394159152,-0.161056033650014,0,-0.1253314432294284,838.0952380952381,776.0439560439561,815.1282051282052,841.7216117216118,656.7765567765568,-0.062012,0.017944,1.002319,0.702820,-1.614990,-0.179443,1019413.919414,201279853.479853,130930622.710623,87.726471,1,1,1,2,1,90.000000
2025-05-02 16:26:14.170,,,,,,,,,,,,,,,,,,,,,,,,,,,,,,,,,,,,,,,,,,/muse/elements/blink
2025-05-02 16:26:14.570,0.8982860878195538,0.8229876745978081,0,1.306590867200392,0.610506588435027,0.87254253540685,0,0.1243510531604193,0.225047230343271,0.9041982018440231,0,0.3636693840740694,0.300147935672417,0.4401634209082918,0,0.5474329477975836,-0.119435394159152,-0.1839403744989408,0,-0.1253314432294284,831.2454212454213,763.5531135531136,784.5054945054945,807.4725274725275,858.2417582417582,-0.058167,0.017212,1.003479,0.695343,-1.263580,0.261688,957362.637363,201446666.666667,130854871.794872,87.726471,1,1,1,2,1,90.000000
2025-05-02 16:26:15.570,0.8982860878195538,1.147674978767808,0,1.306590867200392,0.610506588435027,0.86116479438886,0,0.1243510531604193,0.225047230343271,0.7829377168754754,0,0.3636693840740694,0.300147935672417,0.2108432684214858,0,0.5474329477975836,-0.119435394159152,-0.2288683537568901,0,-0.1253314432294284,841.7216117216118,778.0586080586081,907.3992673992674,807.0695970695971,556.4468864468864,-0.058777,0.017761,1.010498,0.246735,-1.173859,-0.366364,996849.816850,201569963.369963,130765421.245421,87.726471,1,2,1,2,2,90.000000
2025-05-02 16:26:16.188,,,,,,,,,,,,,,,,,,,,,,,,,,,,,,,,,,,,,,,,,,/muse/elements/blink
2025-05-02 16:26:16.570,0.3260164358863479,1.011191003818745,0,0.6928013143304877,0.1436203076167776,0.4104608196396934,0,0.4507095296150864,0.50058188589073,0.6440867169444476,0,0.4503791185543112,0.559889740516793,0.2908141343936209,0,0.6466526929039687,0.07255107231064219,-0.2566038127285893,0,0.220900119803005,836.4835164835165,780.4761904761905,815.5311355311355,836.0805860805862,656.3736263736264,-0.052734,0.021118,1.001709,0.336456,-1.779480,-0.246735,1016190.476190,201420879.120879,130601831.501832,87.726471,1,1,1,2,1,90.000000
2025-05-02 16:26:17.038,,,,,,,,,,,,,,,,,,,,,,,,,,,,,,,,,,,,,,,,,,/muse/elements/blink
2025-05-02 16:26:17.570,0.3589881033853076,0.7876908494116741,0,0.6687726816290851,0.1723724528442429,0.604554651312124,0,0.5314266088376967,0.4809388348514684,0.6833981024160878,0,0.4417129185138683,0.5348466560011026,0.3603116749190286,0,0.608170055711155,0.08349092635551734,-0.3141463240282688,0,0.1858939790484049,832.4542124542124,776.0439560439561,827.2161172161173,803.040293040293,657.985347985348,-0.058167,0.022156,1.001648,0.463562,-1.772003,-0.328979,1027472.527473,202799706.959707,130771868.131868,87.726471,1,1,1,2,1,90.000000
2025-05-02 16:26:18.580,0.8455404457603035,0.8236318588715724,0,0.6687726816290851,0.5477450876980789,0.6754399629885679,0,0.5314266088376967,0.4142571968458783,0.6560897958832845,0,0.4417129185138683,0.5570097915658355,0.1990326682161604,0,0.608170055711155,0.2191966856562486,-0.2233640232460422,0,0.1858939790484049,824.3956043956044,793.3699633699634,834.0659340659341,850.989010989011,593.5164835164835,-0.055237,0.021057,1.002014,0.403748,-1.757050,0.119629,1023443.223443,203039047.619048,130800073.260073,87.726471,1,1,1,2,1,90.000000
2025-05-02 16:26:19.587,0.5238422183658435,0.5677525349149491,0,0.7414781823289068,0.4780992053776422,0.474788879112661,0,0.5771942776735829,0.4897022427937857,0.6194967503296632,0,0.4565367400467553,0.4689491992357909,0.2151094944411478,0,0.6464548372992543,0.1676916176926541,-0.1969749752572039,0,0.3062922163689433,835.6776556776557,789.7435897435897,782.4908424908425,855.4212454212454,734.9450549450549,-0.046448,0.017334,1.001892,0.657959,-1.308441,0.037384,1025054.945055,202870622.710623,130965274.725275,87.912018,1,1,1,2,1,90.000000
2025-05-02 16:26:20.570,0.3733301558497734,0.715044253683503,0,0.663736551665309,0.4393652884313997,0.4160748966914087,0,0.4254434084519426,0.4049004251931163,0.5967146976534776,0,0.3658416925224282,0.3474089268989358,0.39096182839767,0,0.5245203982833233,0.2006818632219634,-0.0851618761975258,0,0.2569611530665848,842.5274725274726,761.5384615384615,819.96336996337,816.3369963369963,611.2454212454213,-0.043274,0.022095,1.003418,0.328979,-1.076660,-0.164490,1030695.970696,202838388.278388,130729963.369963,88.001251,1,1,1,2,1,90.000000
2025-05-02 16:26:20.592,,,,,,,,,,,,,,,,,,,,,,,,,,,,,,,,,,,,,,,,,,/muse/elements/blink
2025-05-02 16:26:21.570,0.5830330700578691,1.01375402849081,0,0.6227389822456604,0.2318212541089284,0.7923664442524176,0,0.2636780487647544,0.264142655856231,0.7810071412740313,0,0.2323972396114332,0.3347088225417045,0.4416019248818403,0,0.4518732734850284,0.2190935420088125,-0.1993480738101505,0,0.1246138932094767,858.2417582417582,801.4285714285714,887.6556776556777,833.6630036630037,668.4615384615385,-0.052307,0.020020,1.006348,0.134583,-1.786957,-0.732727,1031501.831502,202540219.780220,130643736.263736,88.001251,1,1,1,2,1,90.000000
2025-05-02 16:26:22.510,,,,,,,,,,,,,,,,,,,,,,,,,,,,,,,,,,,,,,,,,,/muse/elements/blink
2025-05-02 16:26:22.569,0.806119261508831,0.7766759798285386,0,1.034103983444426,0.6726092094043559,0.7263510343103783,0,0.5291294746257917,0.8061929048337062,0.6841364202047269,0,0.6474997020291222,0.5283207245630909,0.3205732272450858,0,0.6664788071653598,0.2659187562457573,-0.175226583422749,0,0.3039766135813226,834.8717948717949,784.9084249084249,607.6190476190476,840.1098901098901,997.2527472527473,-0.046326,0.019165,1.002014,0.590668,-1.772003,0.029907,1027472.527473,201333040.293040,130464835.164835,86.005638,1,1,1,2,1,90.000000
2025-05-02 16:26:23.570,0.9935948243300485,0.9859815499963688,0,0.9512174934200358,0.7498707791271211,0.3608093370830143,0,0.8663903097674452,0.9282700635511633,0.6980030589445358,0,1.111564010514629,0.5686598549055347,0.3202465920783257,0,0.6665245839541896,0.2515163473247568,-0.2255891872120176,0,0.2307336565200181,815.1282051282052,767.1794871794872,790.1465201465202,803.4432234432235,670.4761904761905,-0.051758,0.018005,1.000183,0.583191,-0.942078,0.246735,1025054.945055,201373333.333333,130598608.058608,72.730240,1,1,1,2,1,90.000000
2025-05-02 16:26:24.108,,,,,,,,,,,,,,,,,,,,,,,,,,,,,,,,,,,,,,,,,,/muse/elements/blink
2025-05-02 16:26:24.570,0.9076800415010124,1.094836508373016,0,0.4872451608006053,0.7837853485285441,0.6739517689680834,0,0.5046385493484588,0.7016547968344569,0.6410192181919514,0,0.7991300817672644,0.335897390313232,0.1916748702247875,0,0.4645153457991928,0.07534512394732906,-0.1466197919014888,0,0.03361607153882953,818.3516483516484,780.0732600732601,888.4615384615385,802.6373626373627,625.7509157509157,-0.043030,0.020691,1.003845,0.628052,-0.867310,0.231781,1028278.388278,201745641.025641,130886300.366300,72.730240,1,1,1,2,1,90.000000
2025-05-02 16:26:25.569,0.3077123534526876,0.8918907975254187,0,0.9053388019416948,0.6886421188836483,0.7152711593067506,0,0.6913166671075569,0.667114130334713,0.6153704113513419,0,0.5323980203495445,0.4579175386022181,0.070163195555298,0,0.7056503217484661,-0.2547051774101092,-0.1987088906097985,0,0.3221279690602907,823.5897435897436,776.0439560439561,683.3699633699634,829.2307692307693,778.0586080586081,-0.048889,0.015381,1.003479,1.009369,-1.547699,0.164490,1026666.666667,201917289.377289,130971721.611722,64.676781,1,1,1,2,1,90.000000
2025-05-02 16:26:26.570,0.5103027958298574,0.9237856380669873,0,0.8554915142653301,0.5964517678943269,0.565544955850272,0,0.6701670965602515,0.7414675314936926,0.616962767190645,0,0.6900498830013019,0.3670656034403122,0.1609437379181401,0,0.6341997445580927,-0.05217944024926434,-0.3249698387487451,0,0.1940426044589196,821.978021978022,788.5347985347986,791.7582417582418,816.7399267399268,706.7399267399268,-0.051025,0.016418,1.001587,0.299072,-1.398163,0.194397,1026666.666667,202362930.402930,130984615.384615,64.676781,1,1,1,2,1,90.000000
2025-05-02 16:26:27.570,0.2534784432438777,0.8106716384286515,0,0.6257061194868558,0.3365133239679875,0.2917911886797867,0,0.6701166359289809,0.4199974698385257,0.3895341406511849,0,0.6309530653824401,0.3607541144104681,0.1793529487822464,0,0.6395682989549322,-0.02313793248405124,-0.4702685376822516,0,0.2308540017555503,847.7655677655678,768.3882783882784,847.7655677655678,839.3040293040293,600.7692307692308,-0.047546,0.015503,1.002441,0.672913,-1.293488,0.186920,1035531.135531,202540219.780220,130964468.864469,61.815468,1,1,1,2,1,90.000000
2025-05-02 16:26:27.572,,,,,,,,,,,,,,,,,,,,,,,,,,,,,,,,,,,,,,,,,,/muse/elements/blink
2025-05-02 16:26:28.569,0.06102986482326726,0.9242737095662299,0,0.1705686195937705,0.09833227665583087,0.7573650402318479,0,0.5706186178043171,0.1309374946903204,0.6484769698135602,0,0.123511044041695,0.4299605358020668,0.2421063913506924,0,0.6184991434617844,-0.09934703470874419,-0.3460999042602731,0,0.2211707202206458,811.5018315018315,780.8791208791209,755.8974358974359,832.8571428571429,676.5201465201466,-0.042358,0.024109,1.006958,0.785065,-1.450500,-0.007477,1037948.717949,202506373.626374,130880659.340659,61.128510,1,1,1,2,1,90.000000
2025-05-02 16:26:29.570,0.6549760023894705,0.8280049203303821,0,0.4590487123805951,0.2395582990303334,0.6679589633995214,0,0.004014807546412727,0.6714950004507351,0.8432641406827902,0,0.4681698771789226,0.4870047164429027,0.2419127057274943,0,0.4700062437950467,0.01648438614449785,-0.2660893901487373,0,0.00733269678101484,830.4395604395604,784.9084249084249,858.6446886446887,822.7838827838829,642.2710622710623,-0.045837,0.022278,1.004089,0.254211,-1.091614,-0.089722,1037948.717949,202013992.673993,130712234.432234,61.128510,1,1,1,2,1,90.000000
2025-05-02 16:26:30.003,,,,,,,,,,,,,,,,,,,,,,,,,,,,,,,,,,,,,,,,,,/muse/elements/blink
2025-05-02 16:26:30.570,0.4157205728628782,1.036746736509062,0,0.2854221684275428,0.2010055788250847,0.7231886113519941,0,0.1434048583843069,0.4292753534544885,0.806765609684977,0,0.442690841447836,0.578780695626436,0.3439951498938427,0,0.5090335330365799,0.04212173655266478,-0.2762446917020097,0,0.01799741100457881,828.021978021978,776.0439560439561,873.956043956044,802.2344322344322,596.7399267399268,-0.047974,0.020752,1.005554,0.328979,-1.286011,0.433655,1037948.717949,201485347.985348,130524468.864469,61.128510,1,1,1,2,1,90.000000
2025-05-02 16:26:31.570,0.5575478645093794,1.184327016048481,0,0.2048743334430735,0.497081027737709,0.7405190640817652,0,0.4384676418454206,0.6448164758133429,0.7406352479980131,0,0.7835515446757541,0.4258254873696482,0.2438867848129663,0,0.4583483643584495,0.08575835941552853,-0.3550146840514978,0,0.1650234317275102,804.2490842490843,789.3406593406594,734.1391941391942,807.8754578754579,819.1575091575091,-0.047668,0.022156,1.009155,0.687866,-1.398163,0.089722,1037948.717949,201236336.996337,130643736.263736,61.128510,1,1,1,2,1,90.000000
2025-05-02 16:26:32.539,,,,,,,,,,,,,,,,,,,,,,,,,,,,,,,,,,,,,,,,,,/muse/elements/blink
2025-05-02 16:26:32.570,0.4728352664409939,0.8751911869646546,0,0.2052656883948848,0.4526212051490612,0.4319885354186915,0,0.3039409669987881,0.740818277549213,0.4487845277965523,0,0.8331891953406709,0.4092169757132247,0.1189801292909098,0,0.5490186284585198,0.07584501901394107,-0.2747930813442725,0,0.2041322302199565,834.0659340659341,763.5531135531136,842.9304029304029,832.8571428571429,626.5567765567765,-0.052551,0.021240,1.006958,0.553284,-0.867310,0.127106,1033919.413919,201135604.395604,130812161.172161,61.128510,1,1,1,2,1,90.000000
2025-05-02 16:26:33.570,0.2203895814460794,1.072501021053536,0,0.2679744215290603,0.505767372595086,0.6245892081302798,0,0.3206885437263437,0.3977255404702194,0.5588155228274685,0,0.2780999101904854,0.3372428184688876,0.1524247676813483,0,0.6309476549303492,-0.0189211963171888,-0.3370748156455482,0,0.3196843082718088,821.978021978022,788.1318681318681,888.0586080586081,787.3260073260074,746.2271062271062,-0.051453,0.022461,1.002380,0.702820,-1.450500,0.463562,1037142.857143,201392673.992674,130966080.586081,60.800972,1,1,1,2,1,90.000000
2025-05-02 16:26:34.570,0.7939016862456424,0.7344098856868199,0,0.9198217316622246,0.3478505171735585,0.3866218300322974,0,0.3428890410534145,0.5897151298067062,0.2423761437065023,0,0.6668608675223346,0.240198874864424,0.2036339432805952,0,0.3125888235421461,0.1876843998850718,-0.2418078438108235,0,0.3270642439195877,813.1135531135532,778.8644688644689,824.3956043956044,826.4102564102565,697.4725274725275,-0.048523,0.024658,1.000793,0.448608,-1.278534,0.029907,1035531.135531,201543369.963370,130919340.659341,59.871235,1,1,1,2,1,90.000000
2025-05-02 16:26:34.879,,,,,,,,,,,,,,,,,,,,,,,,,,,,,,,,,,,,,,,,,,/muse/elements/blink
2025-05-02 16:26:35.070,,,,,,,,,,,,,,,,,,,,,,,,,,,,,,,,,,,,,,,,,,/muse/elements/blink
2025-05-02 16:26:35.570,0.725463523531639,0.8886172429954167,0,0.9563914758347292,0.4409720074020443,0.7942030923061407,0,0.294570269690582,0.5868332663969367,1.024078857343899,0,0.6841514335397515,0.228854483062453,0.1191143307978613,0,0.3412475126497214,0.1915157969497622,-0.3309160742935688,0,0.3557864693146495,857.8388278388279,774.8351648351648,864.2857142857143,838.0952380952381,666.8498168498169,-0.050781,0.020874,1.001282,0.590668,-1.039276,-0.007477,1032307.692308,201919706.959707,130849230.769231,59.871235,1,1,1,2,1,90.000000
2025-05-02 16:26:36.430,,,,,,,,,,,,,,,,,,,,,,,,,,,,,,,,,,,,,,,,,,/muse/elements/blink
2025-05-02 16:26:36.570,0.6263700355914449,1.115795590080819,0,0.8442279861727401,0.45239434223748,1.140914641199521,0,0.3022125770728653,0.5822394505344597,1.039315366577104,0,0.6834735264975484,0.2344835484319646,0.1831231049424961,0,0.3938071395052076,0.1895497393469611,-0.3582901578513219,0,0.322656268554971,574.1758241758242,831.2454212454213,736.959706959707,554.4322344322344,969.4505494505495,-0.047729,0.025330,1.002075,0.568237,-1.413116,0.074768,1038754.578755,200770549.450549,130154578.754579,59.871235,1,1,1,2,1,90.000000
2025-05-02 16:26:36.708,,,,,,,,,,,,,,,,,,,,,,,,,,,,,,,,,,,,,,,,,,/muse/elements/blink
2025-05-02 16:26:36.900,,,,,,,,,,,,,,,,,,,,,,,,,,,,,,,,,,,,,,,,,,/muse/elements/blink
2025-05-02 16:26:37.324,,,,,,,,,,,,,,,,,,,,,,,,,,,,,,,,,,,,,,,,,,/muse/elements/blink
2025-05-02 16:26:37.570,0.6263700355914449,1.115795590080819,0,0.8442279861727401,0.45239434223748,1.140914641199521,0,0.3022125770728653,0.5822394505344597,1.039315366577104,0,0.6834735264975484,0.2344835484319646,0.1831231049424961,0,0.3938071395052076,0.1895497393469611,-0.3582901578513219,0,0.322656268554971,831.2454212454213,791.3553113553114,650.7326007326008,851.3919413919414,922.7106227106227,-0.044312,0.024414,1.001526,0.560760,-1.405640,0.082245,1031501.831502,201672307.692308,130536556.776557,59.871235,1,2,1,2,2,90.000000
2025-05-02 16:26:38.347,,,,,,,,,,,,,,,,,,,,,,,,,,,,,,,,,,,,,,,,,,/muse/elements/blink
2025-05-02 16:26:38.540,,,,,,,,,,,,,,,,,,,,,,,,,,,,,,,,,,,,,,,,,,/muse/elements/blink
2025-05-02 16:26:38.573,0.6263700355914449,1.115795590080819,0,0.8442279861727401,0.45239434223748,1.140914641199521,0,0.3022125770728653,0.5822394505344597,1.039315366577104,0,0.6834735264975484,0.2344835484319646,0.1831231049424961,0,0.3938071395052076,0.1895497393469611,-0.3582901578513219,0,0.322656268554971,890.0732600732601,779.2673992673992,896.9230769230769,878.3882783882784,577.3992673992674,-0.044495,0.014404,1.007996,-2.429962,-1.936493,-3.222504,1029084.249084,201210549.450549,130442271.062271,75.374985,1,2,1,2,2,90.000000
2025-05-02 16:26:39.570,0.6263700355914449,1.115795590080819,0,0.8442279861727401,0.45239434223748,1.140914641199521,0,0.3022125770728653,0.5822394505344597,1.039315366577104,0,0.6834735264975484,0.2344835484319646,0.1831231049424961,0,0.3938071395052076,0.1895497393469611,-0.3582901578513219,0,0.322656268554971,832.0512820512821,784.5054945054945,904.981684981685,806.6666666666667,668.0586080586081,-0.054077,0.003357,1.009338,1.547699,-1.510315,0.979462,1035531.135531,200976043.956044,130716263.736264,82.058884,1,2,1,2,2,90.000000
2025-05-02 16:26:40.570,0.2667318870637984,0.5066041951326019,0,0.6209993990556251,0.3264461326514631,0.5671133842911315,0,0.393910548207468,0.668433473675242,0.7541652195174398,0,0.6956183509081405,0.5053334428915925,0.2931949322709578,0,0.3648779322138536,0.1101120293896792,-0.2778768759483629,0,0.01237034024665659,807.0695970695971,779.2673992673992,666.4468864468864,814.3223443223443,859.4505494505495,-0.050476,0.012207,1.004822,0.680389,-1.958923,0.665436,1033113.553114,201243589.743590,130842783.882784,82.058884,1,1,1,2,1,90.000000
2025-05-02 16:26:41.569,0.2495143947940661,0.5845195915269896,0,0.5455965049539642,0.165302606192993,0.3196528113326969,0,0.2619781855680723,0.6759144193499834,0.469080226533684,0,0.6580605738082342,0.4813922749828011,0.145562122633034,0,0.4828921461107384,0.08525264858387951,-0.2216568680985331,0,0.1101194417500478,643.0769230769231,853.8095238095239,864.2857142857143,641.0622710622711,626.1538461538462,-0.050720,0.011841,1.003540,0.396271,-1.652374,0.328979,1036336.996337,200776996.336996,130710622.710623,69.676018,1,1,1,2,1,90.000000
2025-05-02 16:26:41.782,,,,,,,,,,,,,,,,,,,,,,,,,,,,,,,,,,,,,,,,,,/muse/elements/blink
2025-05-02 16:26:42.379,,,,,,,,,,,,,,,,,,,,,,,,,,,,,,,,,,,,,,,,,,/muse/elements/blink
2025-05-02 16:26:42.570,0.06091944616064833,0.8080304532687945,0,0.1793415973675154,-0.07089273289157093,0.5880942699956476,0,0.2481470059482425,0.5471951307904178,0.6922556266426577,0,0.3834780953151851,0.5721339723515272,0.07075830610643748,0,0.5320055458848447,0.09017658829788049,-0.1361956508463347,0,0.246079988818897,833.2600732600733,787.7289377289378,783.6996336996338,814.3223443223443,694.2490842490843,-0.050659,0.013916,1.009705,0.463562,-1.592560,-0.089722,1037948.717949,201453919.413919,130862930.402930,67.661491,1,1,1,2,1,90.000000
2025-05-02 16:26:43.423,,,,,,,,,,,,,,,,,,,,,,,,,,,,,,,,,,,,,,,,,,/muse/elements/blink
2025-05-02 16:26:43.570,0.1117105440415117,0.5682134419787264,0,0.2062442124418059,-0.06829273290076726,0.6026768372105488,0,0.2690010279846359,0.5463451857815318,0.2947820130033469,0,0.3570151620305098,0.5763509340448015,0.2236044166178278,0,0.535969218550277,0.07125944697402414,-0.4914017970593534,0,0.2697139984228826,780.4761904761905,809.0842490842491,771.6117216117216,765.5677655677656,720.0366300366301,-0.055725,0.012756,1.004761,0.508423,-1.607513,-0.089722,1039560.439560,201069523.809524,130623589.743590,67.661491,1,1,1,2,1,90.000000
2025-05-02 16:26:43.740,,,,,,,,,,,,,,,,,,,,,,,,,,,,,,,,,,,,,,,,,,/muse/elements/blink
2025-05-02 16:26:44.570,0.1117105440415117,0.4637352377942925,0,0.2062442124418059,-0.06829273290076726,0.5897950144183228,0,0.2690010279846359,0.5463451857815318,0.26904549125031,0,0.3570151620305098,0.5763509340448015,0.1934834083949626,0,0.535969218550277,0.07125944697402414,-0.48730568715177,0,0.2697139984228826,828.4249084249085,802.6373626373627,859.4505494505495,800.6227106227107,597.1428571428571,-0.044495,0.008423,1.003479,0.463562,-1.644897,-0.598145,1041978.021978,201580439.560440,130794432.234432,67.661491,1,2,1,2,2,90.000000
2025-05-02 16:26:45.570,-0.1604128431016433,0.6294342819311139,0,0.2344707121604309,-0.1540742815854157,0.2164135582584484,0,-0.1971360505571662,0.1757907305442084,0.3454262954022384,0,0.2305240621845631,0.4845169165688026,0.1410781877460701,0,0.4912740324839365,-0.1886165916635821,-0.4256414079901797,0,0.02123168910105003,821.1721611721612,782.0879120879121,720.0366300366301,797.8021978021978,830.0366300366301,-0.047974,0.015686,1.006531,0.680389,-1.293488,0.343933,1045201.465201,201457948.717949,130665494.505495,67.661491,1,1,1,2,1,90.000000
2025-05-02 16:26:46.570,0.3198144138150536,0.6141341576906807,0,0.4463876136732007,0.08416363217799011,0.5636764758469878,0,0.3226140265641941,0.552515476229512,0.6725717066594413,0,1.025931548813538,0.6168726491393431,0.1930457436597902,0,0.5295119357307989,0.08959735506161635,-0.3287786557176444,0,0.003115987577970288,823.1868131868132,779.6703296703297,813.1135531135532,796.5934065934066,728.0952380952381,-0.052246,0.014832,0.998352,0.822449,-1.353302,0.112152,1046813.186813,201178315.018315,130583296.703297,67.661491,1,1,1,2,1,90.000000
2025-05-02 16:26:47.173,,,,,,,,,,,,,,,,,,,,,,,,,,,,,,,,,,,,,,,,,,/muse/elements/blink
2025-05-02 16:26:47.570,0.3362206735588129,0.6786169553020259,0,0.5824174298405161,0.1077470323143596,0.592728666740107,0,0.6535691059818354,0.53950904143909,0.5693213847388048,0,0.9663197586678195,0.6992596012930544,-0.0224979781355305,0,0.6032376846276049,0.06508973775635651,-0.3565869062538947,0,0.197351482301449,828.8278388278388,788.9377289377289,765.1648351648352,832.4542124542124,817.5457875457876,-0.055786,0.017822,0.996460,0.478516,-1.046753,0.426178,1047619.047619,201530476.190476,130667912.087912,64.746269,1,1,1,2,1,90.000000
2025-05-02 16:26:48.570,0.4718438495722019,0.9521807976055972,0,0.5366847945203277,0.2211338655568714,1.042414377086428,0,0.7779308842970862,0.4713414430503952,0.7739993983297896,0,0.600020232741767,0.6407936141284389,0.191318076379083,0,0.7420577759360535,-0.009967992493140104,-0.1943008166665961,0,0.3734007007855383,818.7545787545788,781.2820512820513,733.7362637362637,832.8571428571429,630.989010989011,-0.050110,0.015442,1.004761,0.867310,-1.061707,-0.067291,1050842.490842,201695677.655678,130796849.816850,60.388206,1,1,1,2,1,90.000000
2025-05-02 16:26:49.570,0.9207278406390255,0.8604024450900556,0,0.8391096401272877,0.8280061008624129,0.8859165962679577,0,0.5529337640882188,1.314871776515991,0.7739993983297896,0,0.8041285191639373,0.3904429435680514,0.1832628535387592,0,0.5566587168293997,0.2311491929039088,-0.269330127839312,0,0.1644956454539234,822.3809523809524,789.3406593406594,829.6336996336996,796.996336996337,691.8315018315019,-0.044861,0.011536,0.999023,0.224304,-1.256104,0.471039,1049230.769231,201563516.483516,130812161.172161,60.388206,1,1,1,2,1,90.000000
2025-05-02 16:26:50.541,,,,,,,,,,,,,,,,,,,,,,,,,,,,,,,,,,,,,,,,,,/muse/elements/blink
2025-05-02 16:26:50.572,0.261887292718822,0.6198349439425705,0,0.7717437587765402,0.1640073968262307,0.1755055547197895,0,0.3553817738713436,0.4061092580873962,0.3919709393249725,0,0.5522873123929951,0.32332623498621,0.1481046944518717,0,0.463135921929463,0.1789632242184279,-0.4557227450698977,0,0.09416996073830178,864.6886446886447,779.6703296703297,743.8095238095239,877.1794871794872,685.3846153846154,-0.053040,0.019287,1.004211,0.500946,-1.300964,-0.336456,1054065.934066,201528864.468864,130806520.146520,60.388206,1,1,1,2,1,90.000000
2025-05-02 16:26:50.821,,,,,,,,,,,,,,,,,,,,,,,,,,,,,,,,,,,,,,,,,,/muse/elements/blink
2025-05-02 16:26:51.574,0.1555180708579768,0.784625947068644,0,0.4538960662979065,0.293074240885259,0.07764755423965509,0,0.1962350647392958,0.1817831998686134,0.1421217735138431,0,0.1237948084302158,0.2813242911798231,0.09968238561424848,0,0.3326850537722468,0.2408906192716035,-0.4455123333778808,0,-0.02676034510463179,811.9047619047619,786.1172161172161,776.0439560439561,799.4139194139194,716.4102564102565,-0.048096,0.018494,1.008301,0.889740,-2.086029,0.680389,1053260.073260,201622344.322344,130745274.725275,60.388206,1,1,1,2,1,90.000000
2025-05-02 16:26:52.569,,,,,,,,,,,,,,,,,,,,,,,,,,,,,,,,,,,,,,,,,,/muse/elements/blink
2025-05-02 16:26:52.579,0.1555180708579768,0.1065914310509956,0,0.4538960662979065,0.293074240885259,0.6007059050001822,0,0.1962350647392958,0.1817831998686134,0.50995393187169,0,0.1237948084302158,0.2813242911798231,0.2062571468157358,0,0.3326850537722468,0.2408906192716035,-0.4555697748200064,0,-0.02676034510463179,886.0439560439561,780.8791208791209,904.981684981685,875.9706959706959,574.1758241758242,-0.039795,0.021484,1.001892,0.702820,-1.286011,0.164490,1053260.073260,201412014.652015,130573626.373626,60.388206,1,1,1,2,1,90.000000
2025-05-02 16:26:52.974,,,,,,,,,,,,,,,,,,,,,,,,,,,,,,,,,,,,,,,,,,/muse/elements/blink
2025-05-02 16:26:53.570,0.1555180708579768,0.1346168231644939,0,0.4538960662979065,0.293074240885259,0.5822293988929655,0,0.1962350647392958,0.1817831998686134,0.4932523824629873,0,0.1237948084302158,0.2813242911798231,0.193252368472084,0,0.3326850537722468,0.2408906192716035,-0.4357397424444917,0,-0.02676034510463179,859.8534798534798,771.2087912087912,824.3956043956044,871.941391941392,718.021978021978,-0.043030,0.018005,1.004456,0.613098,-1.607513,-0.508423,1052454.212454,201367692.307692,130552673.992674,60.388206,1,2,1,2,2,90.000000
2025-05-02 16:26:53.678,,,,,,,,,,,,,,,,,,,,,,,,,,,,,,,,,,,,,,,,,,/muse/elements/blink
2025-05-02 16:26:54.294,,,,,,,,,,,,,,,,,,,,,,,,,,,,,,,,,,,,,,,,,,/muse/elements/blink
2025-05-02 16:26:54.570,0.1555180708579768,0.1584417795233522,0,0.4538960662979065,0.293074240885259,0.5143154102031691,0,0.1962350647392958,0.1817831998686134,0.4031503565321936,0,0.1237948084302158,0.2813242911798231,0.2014883734885267,0,0.3326850537722468,0.2408906192716035,-0.4328106009275756,0,-0.02676034510463179,833.6630036630037,786.1172161172161,685.7875457875458,813.5164835164835,907.8021978021978,-0.046204,0.019470,1.001831,0.650482,-1.480408,0.366364,1048424.908425,201038095.238095,130473699.633700,60.388206,1,2,1,2,2,90.000000
2025-05-02 16:26:55.570,0.1555180708579768,0.1584417795233522,0,0.4538960662979065,0.293074240885259,0.5143154102031691,0,0.1962350647392958,0.1817831998686134,0.4031503565321936,0,0.1237948084302158,0.2813242911798231,0.2014883734885267,0,0.3326850537722468,0.2408906192716035,-0.4328106009275756,0,-0.02676034510463179,815.1282051282052,799.4139194139194,890.8791208791209,805.8608058608058,612.8571428571429,-0.051941,0.023254,1.004333,0.530853,-0.762634,-0.157013,1050842.490842,200904322.344322,130444688.644689,60.388206,1,2,1,2,2,90.000000
2025-05-02 16:26:55.934,,,,,,,,,,,,,,,,,,,,,,,,,,,,,,,,,,,,,,,,,,/muse/elements/blink
2025-05-02 16:26:56.570,0.1555180708579768,1.051191711135791,0,0.4538960662979065,0.293074240885259,1.019430891237742,0,0.1962350647392958,0.1817831998686134,0.8782578905770764,0,0.1237948084302158,0.2813242911798231,0.1044787263443406,0,0.3326850537722468,0.2408906192716035,-0.423555774814502,0,-0.02676034510463179,637.032967032967,812.7106227106227,654.3589743589744,663.2234432234433,832.0512820512821,-0.035034,0.020996,1.005676,0.396271,-2.108459,-0.306549,1050036.630037,200815677.655678,130273846.153846,60.388206,1,2,1,2,2,90.000000
2025-05-02 16:26:56.724,,,,,,,,,,,,,,,,,,,,,,,,,,,,,,,,,,,,,,,,,,/muse/elements/blink
2025-05-02 16:26:57.570,0.1555180708579768,1.336191111514494,0,0.4538960662979065,0.293074240885259,1.279684687640094,0,0.1962350647392958,0.1817831998686134,0.8770655637349046,0,0.1237948084302158,0.2813242911798231,-0.04664540231946671,0,0.3326850537722468,0.2408906192716035,-0.3696154496047164,0,-0.02676034510463179,819.5604395604396,792.967032967033,787.3260073260074,809.0842490842491,649.1208791208792,-0.038269,0.007141,1.001343,0.583191,-1.465454,-0.179443,1051648.351648,201170256.410256,130556703.296703,101.186684,1,2,1,2,2,90.000000
2025-05-02 16:26:58.043,,,,,,,,,,,,,,,,,,,,,,,,,,,,,,,,,,,,,,,,,,/muse/elements/blink
2025-05-02 16:26:58.571,0.1555180708579768,1.068933438527799,0,0.4538960662979065,0.293074240885259,0.6633613405915042,0,0.1962350647392958,0.1817831998686134,0.5597930676827163,0,0.1237948084302158,0.2813242911798231,0.2896099625923512,0,0.3326850537722468,0.2408906192716035,-0.351426712513254,0,-0.02676034510463179,830.0366300366301,787.7289377289378,855.0183150183151,825.2014652014652,595.934065934066,-0.031189,0.010803,1.005859,0.777588,-1.308441,0.052338,1064542.124542,201753699.633700,130509963.369963,101.186684,1,2,1,2,2,90.000000
2025-05-02 16:26:59.354,,,,,,,,,,,,,,,,,,,,,,,,,,,,,,,,,,,,,,,,,,/muse/elements/blink
2025-05-02 16:26:59.569,0.1555180708579768,1.072770320279111,0,0.4538960662979065,0.293074240885259,0.6883308776767041,0,0.1962350647392958,0.1817831998686134,0.6094233916583522,0,0.1237948084302158,0.2813242911798231,0.2209160783006654,0,0.3326850537722468,0.2408906192716035,-0.37798257033979,0,-0.02676034510463179,832.8571428571429,794.981684981685,704.7252747252747,854.2124542124542,867.5091575091575,-0.031128,0.016479,1.005066,1.211243,-1.614990,-0.239258,1074212.454212,202960073.260073,130342344.322344,101.186684,1,2,1,2,2,90.000000
2025-05-02 16:27:00.398,,,,,,,,,,,,,,,,,,,,,,,,,,,,,,,,,,,,,,,,,,/muse/elements/blink
2025-05-02 16:27:00.578,0.1555180708579768,1.034725446343529,0,0.4538960662979065,0.293074240885259,0.6251950108904049,0,0.1962350647392958,0.1817831998686134,0.7185002413204229,0,0.1237948084302158,0.2813242911798231,0.1855039960505673,0,0.3326850537722468,0.2408906192716035,-0.3005831669848095,0,-0.02676034510463179,828.021978021978,787.3260073260074,635.8241758241759,820.7692307692308,709.9633699633699,-0.032532,0.019897,1.001709,0.867310,-1.786957,0.299072,1077435.897436,203031794.871795,130316556.776557,101.186684,1,2,1,2,2,90.000000
2025-05-02 16:27:01.570,0.1555180708579768,1.133109517095139,0,0.4538960662979065,0.293074240885259,0.704901893143887,0,0.1962350647392958,0.1817831998686134,0.6917466427533002,0,0.1237948084302158,0.2813242911798231,0.09300844011707687,0,0.3326850537722468,0.2408906192716035,-0.3116145294522494,0,-0.02676034510463179,874.7619047619048,787.3260073260074,829.2307692307693,897.7289377289378,645.0915750915751,-0.037170,0.018127,1.003601,0.523376,-1.151428,-0.059814,1077435.897436,203010036.630037,130294798.534799,99.385498,1,2,1,2,2,90.000000
2025-05-02 16:27:01.612,,,,,,,,,,,,,,,,,,,,,,,,,,,,,,,,,,,,,,,,,,/muse/elements/blink
2025-05-02 16:27:02.570,0.1555180708579768,1.015946685109415,0,0.4538960662979065,0.293074240885259,0.8562547338853184,0,0.1962350647392958,0.1817831998686134,0.7094233945243096,0,0.1237948084302158,0.2813242911798231,0.120997877769885,0,0.3326850537722468,0.2408906192716035,-0.305383131428157,0,-0.02676034510463179,814.3223443223443,801.4285714285714,733.3333333333334,832.0512820512821,664.0293040293041,-0.033875,0.020996,1.005127,0.538330,-1.218719,0.029907,1078241.758242,202475750.915751,130200512.820513,96.201714,1,2,1,2,2,90.000000
2025-05-02 16:27:03.443,,,,,,,,,,,,,,,,,,,,,,,,,,,,,,,,,,,,,,,,,,/muse/elements/blink
2025-05-02 16:27:03.570,1.202752455936178,1.116252717605072,0,0.4538960662979065,1.174519462047173,0.7700601945015696,0,0.1962350647392958,0.9633815165526349,0.6999190013593468,0,0.1237948084302158,0.7303898444253637,0.3860088783435771,0,0.3326850537722468,0.1233648026086679,-0.2490763183257667,0,-0.02676034510463179,833.6630036630037,780.0732600732601,784.9084249084249,807.4725274725275,728.4981684981685,-0.027466,0.021973,1.006165,0.485992,-1.577606,-0.560760,1078241.758242,201902783.882784,130054652.014652,96.128654,1,1,1,2,1,90.000000
2025-05-02 16:27:04.570,1.216915369287106,1.236023046756309,0,0.4538960662979065,1.146142210910676,0.8868253703219185,0,0.1962350647392958,0.9322086529578536,0.6925164553177343,0,0.1237948084302158,0.7094586599612406,0.3853410306081992,0,0.3326850537722468,0.1108305606199792,-0.2241137118850865,0,-0.02676034510463179,808.2783882783883,789.7435897435897,848.974358974359,808.2783882783883,618.0952380952381,-0.033508,0.022095,1.008057,0.471039,-2.504730,0.239258,1084688.644689,201487765.567766,130127179.487179,96.128654,1,1,1,2,1,90.000000
2025-05-02 16:27:05.468,,,,,,,,,,,,,,,,,,,,,,,,,,,,,,,,,,,,,,,,,,/muse/elements/blink
2025-05-02 16:27:05.570,1.216915369287106,0.9049805490348251,0,0.4538960662979065,1.146142210910676,0.7166437505116464,0,0.1962350647392958,0.9322086529578536,0.8069965806832367,0,0.1237948084302158,0.7094586599612406,0.1122229227973145,0,0.3326850537722468,0.1108305606199792,-0.4729615422714258,0,-0.02676034510463179,839.7069597069598,789.7435897435897,767.1794871794872,835.2747252747253,676.5201465201466,-0.033691,0.020691,1.005432,0.717773,-1.360779,0.373840,1091941.391941,201952747.252747,130283516.483516,87.216194,1,1,1,2,1,90.000000
2025-05-02 16:27:06.570,1.216915369287106,0.8430519129008357,0,0.4538960662979065,1.146142210910676,0.8320091519453522,0,0.1962350647392958,0.9322086529578536,0.7832292159909068,0,0.1237948084302158,0.7094586599612406,-0.03749357679216624,0,0.3326850537722468,0.1108305606199792,-0.4251945283777024,0,-0.02676034510463179,830.0366300366301,796.996336996337,855.4212454212454,785.3113553113553,559.6703296703297,-0.031128,0.024231,1.007507,0.538330,-1.682281,0.044861,1095970.695971,202046227.106227,130318168.498168,87.216194,1,2,1,2,2,90.000000
2025-05-02 16:27:07.570,0.3472631236525019,0.2938519084498414,0,0.7256518773505894,0.2168118530872673,0.3080470991519161,0,0.5686150526084609,0.5435903292930448,0.3650093083356929,0,0.7945233533717535,0.5475658899130569,0.06826369402986245,0,0.4085160065971757,0.08551232904239313,-0.346161103397687,0,-0.08796683867810288,812.7106227106227,794.981684981685,846.5567765567765,839.3040293040293,557.6556776556777,-0.038696,0.024231,1.007996,0.134583,-1.405640,-0.239258,1104835.164835,202346007.326007,130368937.728938,87.216194,1,1,1,2,1,90.000000
2025-05-02 16:27:08.570,0.3708129497556563,0.4472367360867429,0,1.139297517112723,0.01826906201847241,0.3776142330121367,0,0.9067878681292668,0.1816536799430024,0.6093975626226902,0,1.086867326021343,0.3886038004400858,0.09869107456927892,0,0.5250679604511297,0.1303986927915915,-0.3976111529708332,0,0.05711004979553413,820.3663003663004,783.6996336996338,780.0732600732601,809.4871794871796,782.4908424908425,-0.034241,0.028259,1.003113,0.411224,-1.480408,-0.119629,1105641.025641,202300073.260073,130344761.904762,87.216194,1,1,1,2,1,90.000000
2025-05-02 16:27:09.434,,,,,,,,,,,,,,,,,,,,,,,,,,,,,,,,,,,,,,,,,,/muse/elements/blink
2025-05-02 16:27:09.572,0.3648542693319931,0.7370224872122653,0,0.732160159790355,0.2576388008958791,0.4409109794012708,0,0.53736396250617,0.51872322881191,0.7764688186377084,0,0.8841892855912968,0.533193380830665,0.01757480749533505,0,0.4124576201018413,0.01321731078261815,-0.4324830108719471,0,0.1334273700315961,836.8864468864469,791.7582417582418,761.5384615384615,817.5457875457876,621.3186813186813,-0.036438,0.025696,1.006287,0.643005,-1.450500,-0.112152,1110476.190476,202229157.509158,130169890.109890,87.216194,1,1,1,2,1,90.000000
2025-05-02 16:27:10.562,,,,,,,,,,,,,,,,,,,,,,,,,,,,,,,,,,,,,,,,,,/muse/elements/blink
2025-05-02 16:27:10.571,0.3541172254827583,1.148053513287804,0,0.4620545629388649,0.2988801481911787,0.8776158050905215,0,0.2474830046896045,0.5068341678922735,0.9006785519063408,0,0.6055093595488675,0.5392545345310963,0.2086890847716311,0,0.3955762573779794,-0.03097769672389989,-0.3063537918303746,0,0.1094610013926254,846.959706959707,789.7435897435897,823.992673992674,851.3919413919414,566.5201465201466,-0.033020,0.024414,1.003540,0.478516,-1.353302,-0.478516,1111282.051282,202067179.487179,130115897.435897,87.216194,1,1,1,2,1,90.000000
2025-05-02 16:27:11.569,0.3541172254827583,1.096580179560006,0,0.4620545629388649,0.2988801481911787,1.053230722036724,0,0.2474830046896045,0.5068341678922735,0.8505329432853757,0,0.6055093595488675,0.5392545345310963,0.2852029118774861,0,0.3955762573779794,-0.03097769672389989,-0.2854411611707257,0,0.1094610013926254,812.7106227106227,794.1758241758242,787.3260073260074,801.8315018315019,753.8827838827839,-0.036804,0.024353,1.000916,0.515900,-1.742096,-0.007477,1116923.076923,201920512.820513,130115091.575092,87.216194,1,1,1,2,1,90.000000
2025-05-02 16:27:12.576,0.07673694976121889,0.4781258998769023,0,0.4507495668379212,0.1850158766613458,0.1092946851318076,0,0.1615189325276609,0.693655236473528,0.174256730797588,0,0.4643474110722849,0.3620265381673325,0.205974201153854,0,0.4462042913812899,0.095979567216183,-0.4165157274561441,0,0.1649867205100674,790.952380952381,805.8608058608058,759.1208791208792,806.2637362637363,707.5457875457876,-0.045898,0.026978,1.003540,0.396271,-1.031799,-0.142059,1122564.102564,202096190.476190,130210183.150183,87.216194,1,1,1,2,1,90.000000
2025-05-02 16:27:13.576,0.4022050777705997,0.3502382609754726,0,0.9288451494588211,0.006487378858769828,0.3907998518070266,0,0.6709336767155845,0.3828928737648432,0.5298824671347264,0,0.6700266880793814,0.3138747804103951,0.09939046751714871,0,0.5361246109741382,0.2203082106241495,-0.3201157093838047,0,0.1145583239448169,814.7252747252747,786.9230769230769,895.7142857142858,831.6483516483516,535.0915750915751,-0.035400,0.027771,1.003662,0.239258,-1.742096,-0.388794,1121758.241758,202271868.131868,130239194.139194,82.176025,1,1,1,2,1,90.000000
2025-05-02 16:27:14.570,0.4198502963810656,0.3443430397875991,0,0.8716083606594999,0.4216394789006556,0.3558030731290756,0,0.7187034998271818,0.8215110364985189,0.5873555925013367,0,0.7969188611338136,0.2446971052780857,-0.05585421830284254,0,0.476951920241271,0.1545611677277871,-0.3419352068148586,0,-0.0547012192606153,820.7692307692308,764.3589743589744,799.0109890109891,818.7545787545788,671.6849816849817,-0.030579,0.026672,1.007202,0.583191,-1.271057,-0.702820,1126593.406593,202602271.062271,130221465.201465,68.852669,1,1,1,2,1,90.000000
2025-05-02 16:27:15.570,0.5476805876672943,0.7551783811511309,0,0.7964252601225371,0.4873668901955777,0.2787443473274027,0,0.6531630518658301,0.6910087777947608,0.4811439135567462,0,0.7750543252493928,0.3996855249216627,-0.02467904722031863,0,0.4142863351119727,0.1353981195461257,-0.3634137922109655,0,0.216893653212391,814.7252747252747,795.7875457875458,722.4542124542124,804.2490842490843,602.7838827838827,-0.033142,0.026611,1.007935,0.508423,-1.472931,-0.052338,1126593.406593,202516849.816850,130211794.871795,63.473495,1,1,1,2,1,90.000000
2025-05-02 16:27:16.570,0.3863208749386919,0.7473279087274786,0,0.7410223637269095,0.4440670899216501,0.2410102487971333,0,0.4337324098763713,0.5804301082701034,0.3984791823364719,0,0.3830243602933847,0.4712410062592402,0.07037775921443037,0,0.5656087373650226,-0.0928483650017263,-0.2888076070457563,0,0.05089406178347113,813.919413919414,790.5494505494506,831.6483516483516,817.1428571428571,620.9157509157509,-0.037415,0.027222,1.004883,0.695343,-1.278534,0.418701,1127399.267399,202129230.769231,130059487.179487,60.671249,1,1,1,2,1,90.000000
2025-05-02 16:27:17.570,0.3155527229657312,0.262466319249087,0,0.4208909433032657,0.3603117082753327,0.3619163384145783,0,0.2433479223485756,0.5237173196148059,0.3908906927707228,0,0.5876299719493457,0.5662371643454759,0.04278969657462951,0,0.5627124625687326,0.02210385599340261,-0.4842708532079901,0,0.0704721070929458,821.978021978022,802.2344322344322,795.3846153846154,815.934065934066,750.6593406593407,-0.029419,0.022461,1.003601,0.583191,-1.517792,-0.314026,1122564.102564,202137289.377289,130052234.432234,59.130478,1,1,1,2,1,90.000000
2025-05-02 16:27:17.963,,,,,,,,,,,,,,,,,,,,,,,,,,,,,,,,,,,,,,,,,,/muse/elements/blink
2025-05-02 16:27:18.346,,,,,,,,,,,,,,,,,,,,,,,,,,,,,,,,,,,,,,,,,,/muse/elements/blink
2025-05-02 16:27:18.570,0.3378328092051524,0.7450320540122745,0,0.3983416745601454,0.1577360630132633,0.6944513381905407,0,0.2511847905797157,0.2313830795732159,0.5257465571054754,0,0.5480278813197769,0.6334905001468458,-0.03912384658130501,0,0.5599163286743124,0.02341444040563559,-0.4025366108671869,0,0.1327005949364142,828.021978021978,782.0879120879121,809.4871794871796,805.8608058608058,638.2417582417582,-0.041809,0.025879,1.005737,0.538330,-1.368256,-0.485992,1125787.545788,201549010.989011,129800805.860806,75.420372,1,1,1,2,1,90.000000
2025-05-02 16:27:19.089,,,,,,,,,,,,,,,,,,,,,,,,,,,,,,,,,,,,,,,,,,/muse/elements/blink
2025-05-02 16:27:19.387,,,,,,,,,,,,,,,,,,,,,,,,,,,,,,,,,,,,,,,,,,/muse/elements/blink
2025-05-02 16:27:19.570,0.2008410360981127,1.100720359334196,0,0.4039778395557633,0.1274751901551502,1.049723512697761,0,0.3421654558932612,0.2106194090480642,0.4877880694456598,0,0.4869256358354048,0.6309395235332034,-0.0567537448898246,0,0.4957427683155866,0.01089063354479038,-0.3148767267683065,0,0.2081131336646977,833.6630036630037,786.5201465201466,887.6556776556777,836.8864468864469,558.0586080586081,-0.034790,0.030029,1.004822,0.545807,-2.048645,-0.291595,1119340.659341,201779487.179487,130040952.380952,85.362549,1,1,1,1,1,90.000000
2025-05-02 16:27:20.570,0.2008410360981127,1.100720359334196,0,0.4039778395557633,0.1274751901551502,1.049723512697761,0,0.3421654558932612,0.2106194090480642,0.4877880694456598,0,0.4869256358354048,0.6309395235332034,-0.0567537448898246,0,0.4957427683155866,0.01089063354479038,-0.3148767267683065,0,0.2081131336646977,801.4285714285714,790.952380952381,752.2710622710623,790.5494505494506,840.5128205128206,-0.033630,0.025757,1.004395,0.515900,-1.457977,0.074768,1119340.659341,202026080.586081,130188424.908425,88.273590,1,2,1,2,2,90.000000
2025-05-02 16:27:21.538,,,,,,,,,,,,,,,,,,,,,,,,,,,,,,,,,,,,,,,,,,/muse/elements/blink
2025-05-02 16:27:21.570,0.7745341356027878,0.9409866262951504,0,0.9397094981729359,0.3092154322486404,0.1086442569759215,0,0.242785127728376,0.7687598813291804,0.5333439208282587,0,0.5752147817751913,0.7192289693375211,0.2558458631417041,0,0.5542575496127177,0.02400063842577325,-0.4328897221520863,0,-0.007838233836545964,847.7655677655678,776.4468864468864,783.2967032967033,834.0659340659341,591.5018315018315,-0.036682,0.025391,1.006653,0.695343,-1.390686,-0.239258,1117728.937729,201823003.663004,130208571.428571,88.273590,1,1,1,2,1,90.000000
2025-05-02 16:27:21.985,,,,,,,,,,,,,,,,,,,,,,,,,,,,,,,,,,,,,,,,,,/muse/elements/blink
2025-05-02 16:27:22.575,0.9000528229236443,1.085264821564033,0,1.142800698280809,0.329088548157204,0.2570852630490056,0,-0.04260667711998906,0.7329444421376925,0.3610144564941861,0,0.477713512003731,0.7169758393087117,0.2874629363598505,0,0.6008919665504159,-0.06627020392807903,-0.5107657982284259,0,-0.1040997811113477,811.9047619047619,794.981684981685,843.3333333333334,822.3809523809524,679.7435897435897,-0.035156,0.028320,1.002319,0.620575,-1.166382,0.396271,1119340.659341,201915677.655678,130089304.029304,96.453445,1,1,1,2,1,90.000000
2025-05-02 16:27:23.034,,,,,,,,,,,,,,,,,,,,,,,,,,,,,,,,,,,,,,,,,,/muse/elements/blink
2025-05-02 16:27:23.226,,,,,,,,,,,,,,,,,,,,,,,,,,,,,,,,,,,,,,,,,,/muse/elements/blink
2025-05-02 16:27:23.569,0.9000528229236443,1.085264821564033,0,1.142800698280809,0.329088548157204,0.2570852630490056,0,-0.04260667711998906,0.7329444421376925,0.3610144564941861,0,0.477713512003731,0.7169758393087117,0.2874629363598505,0,0.6008919665504159,-0.06627020392807903,-0.5107657982284259,0,-0.1040997811113477,828.4249084249085,791.3553113553114,804.6520146520147,809.4871794871796,639.047619047619,-0.039673,0.026917,1.009705,0.403748,-1.390686,-0.284119,1121758.241758,202065567.765568,130079633.699634,110.023735,1,1,1,2,1,90.000000
2025-05-02 16:27:24.578,0.9000528229236443,1.084798202476085,0,1.142800698280809,0.329088548157204,0.9712815716441828,0,-0.04260667711998906,0.7329444421376925,0.8369577520302436,0,0.477713512003731,0.7169758393087117,0.1836857059226903,0,0.6008919665504159,-0.06627020392807903,-0.1960682728849089,0,-0.1040997811113477,806.6666666666667,794.1758241758242,664.4322344322344,832.4542124542124,855.4212454212454,-0.037964,0.025940,1.004639,0.471039,-1.689758,0.171967,1120146.520147,201823809.523810,130029670.329670,110.023735,1,2,1,2,2,90.000000
2025-05-02 16:27:25.272,,,,,,,,,,,,,,,,,,,,,,,,,,,,,,,,,,,,,,,,,,/muse/elements/blink
2025-05-02 16:27:25.570,0.05524860641146501,0.5850057066590305,0,-0.0856085858837054,0.2017496714420458,0.3473880549830283,0,0.01403371133915912,0.2188146785607301,0.3385719507975634,0,0.4860022693848694,0.3625156878303211,0.1060312989728458,0,0.4370557841673897,-0.03939857677643982,-0.4083098445493207,0,-0.03255668809223822,810.2930402930403,792.967032967033,890.8791208791209,820.3663003663004,590.6959706959707,-0.031250,0.027283,1.006897,0.396271,-0.934601,0.142059,1116117.216117,201781098.901099,129919267.399267,102.789696,1,1,1,2,1,90.000000
2025-05-02 16:27:26.570,-0.01003398271469346,0.6794354356839124,0,-0.1137405562627821,0.260223546698284,0.2217569849945888,0,-0.0009181566632789803,0.2177527049032991,0.3385719507975634,0,0.4577056287113139,0.3268383085635382,0.127033238965671,0,0.4535553370889785,-0.03816787396520184,-0.4547326426265646,0,-0.03368431668825663,811.9047619047619,796.996336996337,830.0366300366301,805.8608058608058,700.2930402930403,-0.039612,0.024109,1.005981,0.515900,-1.958923,-0.007477,1119340.659341,201604615.384615,129972454.212454,102.789696,1,1,1,2,1,90.000000
2025-05-02 16:27:27.569,0.1654357747883509,0.545949392917364,0,0.2976076493936928,0.2777544323397766,0.2022361532008149,0,0.14099601896591,0.7398629216783362,0.3664087743577104,0,0.435987949685875,0.3640354925181545,0.1430371764022412,0,0.3665578379745529,-0.1547259222920769,-0.3018364355209088,0,0.04791286701727079,859.047619047619,775.6410256410256,821.5750915750916,845.3479853479854,568.9377289377289,-0.042786,0.025330,1.002014,0.897217,-0.710297,0.097198,1120146.520147,201470842.490842,129950695.970696,102.789696,1,1,1,2,1,90.000000
2025-05-02 16:27:27.615,,,,,,,,,,,,,,,,,,,,,,,,,,,,,,,,,,,,,,,,,,/muse/elements/blink
2025-05-02 16:27:28.569,-0.2519126232505609,0.4290760310683516,0,0.3639299347729554,0.3568752889178072,0.3184761312439718,0,0.1410729016250855,0.6490988480462104,0.3186109943630506,0,0.4278485586640731,0.2929181875480903,0.1865230361318508,0,0.3850331804362728,-0.05169619305686182,-0.2223817476311206,0,-0.03698558300413105,821.5750915750916,795.7875457875458,814.3223443223443,834.4688644688645,701.0989010989011,-0.041077,0.022827,1.000427,0.732727,-1.861725,0.456085,1123369.963370,201588498.168498,130105421.245421,98.620087,1,1,1,2,1,90.000000
2025-05-02 16:27:29.570,0.3287807410531781,0.1675343603176508,0,0.5163757631089224,0.04381792609806721,0.1077363466744718,0,0.007592717566615031,0.7925107534928381,0.4416384034219654,0,0.4692317074746199,0.4117318474214601,0.1599811857245911,0,0.6279597094819968,-0.1082670727724621,-0.4934352051264843,0,0.09103031985944116,815.5311355311355,795.3846153846154,702.3076923076924,791.3553113553114,970.6593406593407,-0.035828,0.028198,1.006165,0.343933,-1.779480,-0.134583,1129816.849817,201620732.600733,130111868.131868,86.812561,1,1,1,2,1,90.000000
2025-05-02 16:27:29.911,,,,,,,,,,,,,,,,,,,,,,,,,,,,,,,,,,,,,,,,,,/muse/elements/blink
2025-05-02 16:27:30.570,0.2987599274975941,0.6984928388845253,0,0.5036339289918536,0.2195626446331368,0.5760093609394553,0,-0.05590179184998821,0.6131491963281981,0.4732397106960031,0,0.2700528670588024,0.4230503000067185,0.02676967346404923,0,0.6110826500127933,0.03964873362627187,-0.4460872678067632,0,-0.04218540839269259,823.1868131868132,796.1904761904763,787.7289377289378,805.8608058608058,574.5787545787546,-0.036926,0.030273,1.002747,0.643005,-1.951447,-0.097198,1133846.153846,201724688.644689,130099780.219780,86.812561,1,1,1,2,1,90.000000
2025-05-02 16:27:31.569,-0.1121039816679568,0.638933241406344,0,0.4065242796161707,0.08652854929142122,0.4672228950457388,0,0.09079309590463475,0.3173644713944181,0.3679598293383049,0,0.52739463784591,0.3988574357404719,0.01718120595584666,0,0.4074042257481765,-0.03248631975021063,-0.2721190807125342,0,0.07735354646158489,728.901098901099,793.3699633699634,774.4322344322345,740.989010989011,831.2454212454213,-0.035339,0.027649,1.007080,0.493469,-1.532745,-0.186920,1137069.597070,201543369.963370,129997435.897436,86.812561,1,1,1,2,1,90.000000
2025-05-02 16:27:31.658,,,,,,,,,,,,,,,,,,,,,,,,,,,,,,,,,,,,,,,,,,/muse/elements/blink
2025-05-02 16:27:32.169,,,,,,,,,,,,,,,,,,,,,,,,,,,,,,,,,,,,,,,,,,/muse/elements/blink
2025-05-02 16:27:32.361,,,,,,,,,,,,,,,,,,,,,,,,,,,,,,,,,,,,,,,,,,/muse/elements/blink
2025-05-02 16:27:32.569,-0.3710844632212972,0.4808130458547453,0,0.387463537980827,0.04178374136766732,0.3299932570061923,0,0.0853490565364218,0.2896906706075487,0.5473612287151515,0,0.52739463784591,0.4092493522888292,0.0303081889366679,0,0.441710189066598,-0.01020857269204568,-0.1555297788176029,0,0.09428379333672331,825.6043956043957,794.1758241758242,795.7875457875458,805.8608058608058,734.1391941391942,-0.038452,0.030029,1.005066,0.770111,-1.742096,0.201874,1138681.318681,201194432.234432,130020000.000000,86.812561,1,1,1,1,1,90.000000
2025-05-02 16:27:33.569,-0.3710844632212972,0.5958759909433637,0,0.387463537980827,0.04178374136766732,0.4621893623412938,0,0.0853490565364218,0.2896906706075487,0.5467154789917515,0,0.52739463784591,0.4092493522888292,0.05273431661289094,0,0.441710189066598,-0.01020857269204568,-0.06764681096027882,0,0.09428379333672331,819.1575091575091,786.9230769230769,821.978021978022,809.4871794871796,559.2673992673992,-0.033752,0.027893,1.003723,0.620575,-1.772003,0.269165,1146739.926740,201046153.846154,129933772.893773,81.403091,1,1,1,2,1,90.000000
2025-05-02 16:27:34.571,0.02842001944823423,0.09403971154858776,0,0.1908905569810234,0.3622914680247021,0.4614569494012225,0,0.4741885203239769,0.4807559815198598,0.08055607951442043,0,0.5359594695142683,0.4354261588531507,0.06824626857647181,0,0.2791717726063859,-0.01704306103681691,-0.2628829191869539,0,0.1978382001804002,808.2783882783883,796.1904761904763,861.4652014652015,807.8754578754579,643.8827838827839,-0.039001,0.034180,1.004395,0.500946,-2.145844,0.007477,1151575.091575,200994578.754579,129951501.831502,81.403091,1,1,1,2,1,90.000000
2025-05-02 16:27:35.305,,,,,,,,,,,,,,,,,,,,,,,,,,,,,,,,,,,,,,,,,,/muse/elements/blink
2025-05-02 16:27:35.570,0.2912316595389151,0.8211348375318538,0,0.2510140982223223,0.4520586889248631,0.9356708418396366,0,0.5358090431179559,0.572117140867432,0.9158074686702077,0,0.5036990450404071,0.4365292024381567,0.03403764478407902,0,0.3306852127579525,-0.02280929930257437,-0.2767921650003546,0,0.1367164493925433,740.989010989011,814.3223443223443,775.2380952380953,709.1575091575091,814.3223443223443,-0.041321,0.032410,1.006775,0.613098,-0.807495,-0.306549,1158021.978022,200900293.040293,129762930.402930,81.403091,1,1,1,1,1,90.000000
2025-05-02 16:27:36.009,,,,,,,,,,,,,,,,,,,,,,,,,,,,,,,,,,,,,,,,,,/muse/elements/blink
2025-05-02 16:27:36.325,,,,,,,,,,,,,,,,,,,,,,,,,,,,,,,,,,,,,,,,,,/muse/elements/blink
2025-05-02 16:27:36.570,0.4546566110175092,1.492189721892927,0,0.2639016205074025,0.3443027482522675,1.567490055147179,0,0.3466754215461749,0.5075103943755539,1.167803580201027,0,0.4795837328244498,0.4222065993150776,0.1515783034888091,0,0.3254685631368035,-0.05613793754175258,-0.1651765870698986,0,-0.01598587308176184,822.7838827838829,795.7875457875458,913.040293040293,825.2014652014652,572.967032967033,-0.035339,0.031250,1.002625,0.613098,-1.428070,0.097198,1162051.282051,201200879.120879,129961978.021978,81.403091,1,1,1,2,1,90.000000
2025-05-02 16:27:37.570,0.4546566110175092,1.702836715630984,0,0.2639016205074025,0.3443027482522675,1.784341770548455,0,0.3466754215461749,0.5075103943755539,1.165832579160741,0,0.4795837328244498,0.4222065993150776,0.230830848025309,0,0.3254685631368035,-0.05613793754175258,-0.05060686015720277,0,-0.01598587308176184,814.7252747252747,805.4578754578755,851.3919413919414,794.5787545787546,633.8095238095239,-0.035095,0.029724,1.003296,0.284119,-1.315918,-0.254211,1166080.586081,201394285.714286,129993406.593407,81.403091,1,1,1,2,1,90.000000
2025-05-02 16:27:38.569,1.414392299151354,0.5382440090725259,0,0.6060787786028436,0.4787512197497998,0.07279516607483749,0,0.3300252048050113,0.8240239139370609,0.3119863286055526,0,0.3621123098649662,0.4437473189454859,-0.06311136532735179,0,0.2677772502765235,0.2247411727960076,-0.3513596410273791,0,0.1351516952298725,826.007326007326,799.8168498168499,588.2783882783883,805.0549450549451,1004.908424908425,-0.038147,0.033997,1.006531,0.568237,-1.831818,-0.134583,1170109.890110,201482124.542125,130007106.227106,81.403091,1,1,1,2,1,90.000000
2025-05-02 16:27:38.772,,,,,,,,,,,,,,,,,,,,,,,,,,,,,,,,,,,,,,,,,,/muse/elements/blink
2025-05-02 16:27:39.574,1.540012093235021,0.9671636579923394,0,0.6060787786028436,0.5810576370418474,0.6803728379786167,0,0.3300252048050113,0.8240239139370609,0.7045862933707648,0,0.3621123098649662,0.5708093332713498,-0.09818369953844484,0,0.2677772502765235,0.3150629012702383,-0.2324849751931904,0,0.1351516952298725,817.5457875457876,802.2344322344322,878.7912087912089,807.8754578754579,510.5128205128206,-0.036255,0.031372,1.002991,0.523376,-1.629944,0.037384,1176556.776557,201394285.714286,129938608.058608,81.403091,1,1,1,2,1,90.000000
2025-05-02 16:27:40.570,1.540012093235021,0.4448541215270303,0,0.6276099538684436,0.5810576370418474,0.3923682691749122,0,0.2803522756083075,0.8240239139370609,0.1822746437329161,0,0.6566353042154228,0.5708093332713498,0.09708465755839572,0,0.3425674179327128,0.3150629012702383,-0.3549238088051758,0,0.1595930383413512,791.7582417582418,792.967032967033,873.1501831501831,789.7435897435897,579.4139194139194,-0.037048,0.028625,1.007812,0.418701,-1.794434,-0.059814,1174945.054945,201727106.227106,129811282.051282,81.403091,1,1,1,2,1,90.000000
2025-05-02 16:27:41.320,,,,,,,,,,,,,,,,,,,,,,,,,,,,,,,,,,,,,,,,,,/muse/elements/blink
2025-05-02 16:27:41.570,1.011005933588611,0.4811379296425732,0,0.8403485791400361,0.4999373920086581,0.4307631486562222,0,0.564233035059839,1.08175541067273,0.4590367591836901,0,0.9149541417027399,0.6220261779801963,0.05962431938823827,0,0.5369121699358201,0.007350357235877099,-0.2521038573968166,0,0.1818367736832478,795.7875457875458,813.1135531135532,697.4725274725275,763.1501831501831,748.6446886446887,-0.025391,0.029968,1.006042,0.814972,-1.428070,0.186920,1175750.915751,202182417.582418,129812087.912088,81.403091,1,1,1,2,1,90.000000
2025-05-02 16:27:41.831,,,,,,,,,,,,,,,,,,,,,,,,,,,,,,,,,,,,,,,,,,/muse/elements/blink
2025-05-02 16:27:42.569,1.047495800374924,0.7266722904686409,0,0.9306553256212603,0.4568686307076235,0.5983109701160078,0,0.6857398805918939,1.036165387298295,0.4567379092063681,0,0.9049518829322056,0.6231927449738119,-0.02984024641462855,0,0.6578840539186375,-0.003781152914295931,-0.2111662658668682,0,0.2272570496596195,821.5750915750916,794.981684981685,846.5567765567765,823.992673992674,566.9230769230769,-0.033264,0.026367,1.011108,0.373840,-1.644897,-0.785065,1171721.611722,202395164.835165,129982930.402930,81.403091,1,1,1,2,1,90.000000
2025-05-02 16:27:43.569,0.4703361228299308,0.1118539550575025,0,0.4696698576657579,0.4947206521080901,0.2672194677154578,0,0.5711764343310901,0.4577156290283733,0.291787225296519,0,0.709895577721762,0.4362579758665732,0.007080867711898914,0,0.5384468026598316,0.3791282214335354,-0.3780160199750099,0,-0.002451674911228931,805.0549450549451,788.9377289377289,790.952380952381,799.4139194139194,743.0036630036631,-0.033630,0.020447,1.003174,0.613098,-1.884155,0.164490,1170915.750916,202503150.183150,130059487.179487,81.403091,1,1,1,2,1,90.000000
2025-05-02 16:27:44.570,0.816655285965546,0.3423981468132303,0,0.8251409740478678,0.4953577961612279,0.1623432204061356,0,0.6281171314023368,0.5393149143335876,0.3723174617807292,0,0.8180588328939039,0.431192665870802,0.03992363372360797,0,0.4055732685588056,0.2377366755993956,-0.5007774333001579,0,0.1378287952850404,816.3369963369963,788.5347985347986,799.4139194139194,792.5641025641025,635.4212454212454,-0.029846,0.024597,0.999390,0.695343,-1.413116,0.710297,1169304.029304,202746520.146520,130058681.318681,81.403091,1,1,1,2,1,90.000000
2025-05-02 16:27:45.570,0.72857064308691,0.3035171602330858,0,0.4727340797226371,0.3840232697953987,0.1104326088428904,0,0.348562545926034,0.4005257893674953,0.2242361090148067,0,0.7655167103154773,0.4296333868416764,0.04543279858803365,0,0.4083703790065027,0.1657239002329801,-0.5884744226750604,0,0.1398283663102437,819.1575091575091,795.7875457875458,846.5567765567765,820.3663003663004,537.5091575091575,-0.026917,0.023865,0.997070,0.515900,-1.951447,0.284119,1170109.890110,202910915.750916,129868498.168498,81.403091,1,1,1,2,1,90.000000
2025-05-02 16:27:46.574,0.7625502687576594,0.1642905296338205,0,0.7905476835287977,0.5261991755545093,0.2580935024750728,0,0.415869442643471,0.430729459199705,0.2534952440313127,0,0.4785346249093682,0.4060810735558419,-0.04552380580002653,0,0.4819065878793571,0.1079095995217567,-0.3731896371311687,0,0.1895759256663227,726.0805860805862,823.5897435897436,823.5897435897436,717.2161172161173,730.1098901098901,-0.024780,0.021301,1.003235,0.351410,-1.809387,-0.194397,1157216.117216,202632087.912088,129747619.047619,72.594276,1,1,1,2,1,90.000000
2025-05-02 16:27:46.796,,,,,,,,,,,,,,,,,,,,,,,,,,,,,,,,,,,,,,,,,,/muse/elements/blink
2025-05-02 16:27:47.569,0.8623570154804364,0.9792793101267002,0,1.048688512305456,0.6486597943533691,0.9075424026408894,0,0.7590761029233722,0.3428223005954544,1.03696808530248,0,0.4086532101145087,0.4307792080244252,0.07071222217221633,0,0.4591215642500449,0.1111551459369843,-0.2644757577975803,0,0.2684113372177324,808.6813186813187,791.7582417582418,807.0695970695971,805.8608058608058,701.9047619047619,-0.029175,0.023621,1.006836,0.508423,-1.480408,-0.269165,1168498.168498,202704615.384615,129845934.065934,71.283531,1,1,1,2,1,90.000000
2025-05-02 16:27:48.569,1.010558066259614,0.9012738402746383,0,0.7807474074391098,0.5593305709783452,0.7628431929652262,0,0.2572209607196436,0.4099934435832813,1.002101998586181,0,0.2698979776343098,0.5466207899984211,0.1299353603269399,0,0.43353025379756,0.412850531377955,-0.1928796390914424,0,0.2167695526151784,813.919413919414,778.8644688644689,904.5787545787546,821.1721611721612,554.0293040293041,-0.026550,0.022339,1.006348,0.336456,-1.166382,-0.097198,1165274.725275,202488644.688645,129783882.783883,71.283531,1,1,1,2,1,90.000000
2025-05-02 16:27:48.636,,,,,,,,,,,,,,,,,,,,,,,,,,,,,,,,,,,,,,,,,,/muse/elements/blink
2025-05-02 16:27:49.570,1.136886776898956,0.9991070878112157,0,0.8862044896547318,0.6560802489026705,0.9740783454266252,0,0.2230319864607256,0.4099934435832813,0.7733590383540451,0,0.1664998048604076,0.620979889356006,0.1295606221328816,0,0.4860842979543725,0.4236379206682326,-0.2930629999081058,0,0.1279573461745107,810.6959706959707,788.5347985347986,791.7582417582418,827.6190476190476,689.4139194139194,-0.028320,0.023987,1.009155,0.695343,-1.271057,0.314026,1167692.307692,202358095.238095,129816923.076923,71.283531,1,1,1,2,1,90.000000
2025-05-02 16:27:49.827,,,,,,,,,,,,,,,,,,,,,,,,,,,,,,,,,,,,,,,,,,/muse/elements/blink
2025-05-02 16:27:50.570,1.193766734334831,0.7422993949599853,0,0.943975344107677,0.6851336491339162,0.5674321729732024,0,0.215025833945245,0.4099934435832813,0.5356533461777204,0,0.1487714996974933,0.6484433541817228,-0.05435895604970512,0,0.5030531904063483,0.3966318018804615,-0.3455878335759332,0,0.07950718428511458,807.4725274725275,787.7289377289378,764.3589743589744,796.996336996337,737.3626373626374,-0.021729,0.023376,1.001404,0.314026,-1.869202,-0.448608,1169304.029304,202276703.296703,129838681.318681,71.283531,1,1,1,2,1,90.000000
2025-05-02 16:27:51.569,-0.004176519555350586,0.4638661038136891,0,0.0579454711747308,0.02160089973257815,0.2679724041672392,0,0.4226789691474451,0.1522591915328168,0.3857444614434332,0,0.01378844843854209,0.4025706969896263,-0.04032038774299074,0,0.4233894317881525,-0.1093484927090349,-0.2994998690245229,0,0.3556797051694208,811.9047619047619,799.8168498168499,890.8791208791209,801.025641025641,567.7289377289377,-0.016479,0.022949,1.009094,0.770111,-1.368256,0.067291,1175750.915751,202338754.578755,129743589.743590,71.283531,1,1,1,2,1,90.000000
2025-05-02 16:27:51.660,,,,,,,,,,,,,,,,,,,,,,,,,,,,,,,,,,,,,,,,,,/muse/elements/blink
2025-05-02 16:27:52.003,,,,,,,,,,,,,,,,,,,,,,,,,,,,,,,,,,,,,,,,,,/muse/elements/blink
2025-05-02 16:27:52.569,-0.05573733752354166,1.14799316629036,0,0.07496345170645699,0.0647169661434019,0.7101400678068832,0,0.4665283472529712,0.1350254365047152,0.4196391873928741,0,-0.1739523970930054,0.3711276116149819,0.03457936605279795,0,0.4016531905188678,-0.128921236243154,-0.1754678468837176,0,0.3655381451824127,804.2490842490843,792.1611721611722,886.4468864468864,811.0989010989011,655.9706959706959,-0.023438,0.018066,1.006775,0.471039,-0.964508,-0.127106,1177362.637363,202529743.589744,129775018.315018,71.283531,1,1,1,1,1,90.000000
2025-05-02 16:27:53.570,0.117090723347887,1.159483309508357,0,0.4334169519842646,0.5006286998859538,0.7237296166804902,0,-0.378976732883565,0.3277417913674835,0.4142078153418128,0,0.4662790245260465,0.5932595507760183,0.1256081534157973,0,0.7079147582973281,0.001815887804748698,-0.2956660316543729,0,0.2047364635628948,813.919413919414,784.9084249084249,799.0109890109891,785.3113553113553,664.0293040293041,-0.024536,0.024170,1.005066,0.575714,-1.084137,0.142059,1181391.941392,202628058.608059,129768571.428571,71.283531,1,1,1,1,1,90.000000
2025-05-02 16:27:54.574,0.5506253121954018,0.8460846219561533,0,0.3314904642781094,0.4761723057634205,0.525435492524532,0,-0.110548412433057,0.4143195737142803,0.481683942383033,0,0.5118617055174549,0.5046280451163685,0.1594487988447301,0,0.6148002619119886,0.08803317151457096,-0.3559977582683358,0,0.1170210986481024,842.1245421245421,784.5054945054945,875.5677655677656,869.92673992674,587.0695970695971,-0.023804,0.023438,1.004456,0.373840,-0.919647,-0.276642,1183809.523810,202662710.622711,129821758.241758,91.816513,1,1,1,1,1,90.000000
2025-05-02 16:27:54.622,,,,,,,,,,,,,,,,,,,,,,,,,,,,,,,,,,,,,,,,,,/muse/elements/blink
2025-05-02 16:27:55.569,0.8443186649033279,0.7503552152219547,0,0.4048188308511115,0.4582560393022512,0.4916582872685973,0,-0.2400140371483124,0.1195981210666991,0.4570653222898296,0,0.1551094766150094,0.4043038609100345,-0.08756084747777253,0,0.5266542273270779,0.05929888561378765,-0.3094256723098018,0,-0.04242023549268439,799.0109890109891,799.0109890109891,834.4688644688645,786.1172161172161,797.3992673992674,-0.025452,0.023132,1.008118,0.478516,-1.016846,-0.216827,1185421.245421,202782783.882784,129808864.468864,91.816513,1,1,1,1,1,90.000000
2025-05-02 16:27:56.569,0.4050608211727925,0.8424740958866558,0,0.02523422593350657,0.09262777318587692,0.2625073731115117,0,0.6696768927257846,1.151256088624702,0.4006457040143052,0,1.186558668184148,0.5993639697353634,0.1127917153542201,0,0.7338287459828026,0.2011978891198875,-0.2498744160147393,0,0.1915182613050475,807.8754578754579,813.5164835164835,744.2124542124542,774.8351648351648,628.1684981684982,-0.020630,0.019836,1.009644,0.328979,-1.375732,-0.097198,1191868.131868,202679633.699634,129797582.417582,91.816513,1,1,1,1,1,90.000000
2025-05-02 16:27:57.573,0.305888886573224,0.7053397087332048,0,0.1961916125939449,0.09483522509200157,0.2009686064591367,0,0.4898827544823949,1.151495629505162,0.4526574644628645,0,1.16094757295296,0.5618707174846294,0.08809623112359681,0,0.6527550238784299,0.2054960200003895,-0.2479535691647954,0,0.2849972733428577,815.1282051282052,793.7728937728938,801.8315018315019,820.3663003663004,690.2197802197802,-0.026978,0.022522,1.004089,0.246735,-0.650482,-0.164490,1197509.157509,202740073.260073,129830622.710623,91.816513,1,1,1,2,1,90.000000
2025-05-02 16:27:58.570,0.2027279210940499,0.6763326994887497,0,0.1101945686610985,0.2935650845585145,0.4824901287634941,0,0.3419465673652914,0.8600608986866275,0.4638696302598809,0,0.9894215832750797,0.3338977298627467,-0.0001368662473117266,0,0.6214401269352754,0.1865401498213038,-0.252654299042339,0,0.2853148169360336,819.5604395604396,796.5934065934066,786.1172161172161,787.7289377289378,622.9304029304029,-0.022339,0.026367,1.008972,0.553284,-1.674805,0.306549,1170109.890110,202564395.604396,129824175.824176,80.889778,1,1,1,2,1,90.000000
2025-05-02 16:27:59.569,0.2888548878599407,0.6388567778538418,0,-0.03605731469861106,0.4917070380925838,0.4973395569552174,0,0.4536005068181434,1.00302551426053,0.4654368018870412,0,1.215520841373475,0.4845880239684392,0.01752341045117196,0,0.5325260887277171,0.1591597306884338,-0.4859888857495062,0,0.2341985225936071,813.1135531135532,788.9377289377289,739.3772893772893,785.3113553113553,790.952380952381,-0.023315,0.023193,1.002502,0.254211,-1.772003,-0.874786,1137875.457875,202354065.934066,129689597.069597,70.195450,1,1,1,2,1,90.000000
2025-05-02 16:28:00.203,,,,,,,,,,,,,,,,,,,,,,,,,,,,,,,,,,,,,,,,,,/muse/elements/blink
2025-05-02 16:28:00.372,,,,,,,,,,,,,,,,,,,,,,,,,,,,,,,,,,,,,,,,,,/muse/elements/blink
2025-05-02 16:28:00.575,0.4747670168834454,0.8580113691621385,0,0.1634395806904013,0.6010193988969518,0.5839691357792216,0,0.499728780414984,0.7960926047691128,0.2857544792553783,0,1.073462071935786,0.5544616181611935,-0.004308550762714501,0,0.3065413363348113,0.1102573184155055,-0.3255390933708509,0,0.172763684864108,837.6923076923077,792.5641025641025,870.3296703296703,819.1575091575091,664.8351648351648,-0.026062,0.020874,1.005127,0.575714,-1.143951,-0.261688,1190256.410256,201843150.183150,129464761.904762,64.164024,1,1,1,2,1,90.000000
2025-05-02 16:28:00.712,,,,,,,,,,,,,,,,,,,,,,,,,,,,,,,,,,,,,,,,,,/muse/elements/blink
2025-05-02 16:28:00.989,,,,,,,,,,,,,,,,,,,,,,,,,,,,,,,,,,,,,,,,,,/muse/elements/blink
2025-05-02 16:28:01.577,0.4839519965358515,1.190912071391435,0,0.3012485746103612,0.5481334999625949,0.9248297817703784,0,0.348200828158053,0.5723407422927959,0.1499731231221013,0,0.5622691047208062,0.5593081304864406,0.1945672521816621,0,0.3626619374348302,-0.08444430655059335,-0.2784286291003669,0,0.1683825969057071,795.7875457875458,792.967032967033,874.3589743589744,797.3992673992674,618.4981684981685,-0.025085,0.022034,1.004822,0.508423,-1.570129,-0.074768,1149157.509158,201673919.413919,129635604.395604,62.009789,1,1,1,2,1,90.000000
2025-05-02 16:28:02.575,0.05835523148383307,0.4959837292588252,0,0.08237110338261708,0.8393812972921507,-0.4608107582059968,0,0.6122673291058445,0.7540391614245817,0.03415820434419491,0,0.6163761801132036,0.591533373596407,0.007163630877513444,0,0.6523035854256628,0.3333423192795747,-0.499800332478983,0,0.1829345770490577,799.8168498168499,793.3699633699634,703.919413919414,790.1465201465202,862.2710622710623,-0.023926,0.027344,1.004211,0.493469,-1.674805,-0.052338,1139487.179487,201373333.333333,129729084.249084,62.009789,1,1,1,2,1,90.000000
2025-05-02 16:28:03.058,,,,,,,,,,,,,,,,,,,,,,,,,,,,,,,,,,,,,,,,,,/muse/elements/blink
2025-05-02 16:28:03.577,0.2034051633493483,0.5823918984707293,0,0.05138375501362882,0.697808938072408,-0.04151861418705028,0,0.4484448889365354,0.7874194831485447,0.242009251687535,0,0.7583227160207651,0.5956963678096352,0.1016031456333848,0,0.5637047889045638,0.2669696116666074,-0.4856839934613386,0,0.1939661943107044,799.8168498168499,784.9084249084249,899.7435897435897,820.3663003663004,585.0549450549451,-0.019287,0.024597,1.004272,0.441132,-1.375732,0.351410,1140293.040293,201453919.413919,129759706.959707,62.009789,1,1,1,1,1,90.000000
2025-05-02 16:28:04.567,,,,,,,,,,,,,,,,,,,,,,,,,,,,,,,,,,,,,,,,,,/muse/elements/blink
2025-05-02 16:28:04.578,0.2857027299848549,0.3132500096559452,0,0.01660958911855389,0.4559607062384619,0.1208649953496832,0,0.07712728217949989,0.6824607889926331,0.4200384690274441,0,0.6422805141595934,0.6043635868705771,-0.04379542617632923,0,0.4450791371265482,0.1775242001120323,-0.3968686998367437,0,0.1933857144811814,697.4725274725275,834.8717948717949,801.8315018315019,690.6227106227107,645.4945054945055,-0.019714,0.025452,1.004150,0.598145,-1.248627,-0.074768,1123369.963370,201399926.739927,129760512.820513,62.009789,1,1,1,2,1,90.000000
2025-05-02 16:28:05.249,,,,,,,,,,,,,,,,,,,,,,,,,,,,,,,,,,,,,,,,,,/muse/elements/blink
2025-05-02 16:28:05.569,0.2857027299848549,0.650641716606543,0,0.01660958911855389,0.4559607062384619,0.4894681348559239,0,0.07712728217949989,0.6824607889926331,0.4699352322901978,0,0.6422805141595934,0.6043635868705771,-0.02854755315797056,0,0.4450791371265482,0.1775242001120323,-0.4028193743406354,0,0.1933857144811814,819.1575091575091,799.0109890109891,765.1648351648352,792.967032967033,681.3553113553114,-0.019165,0.025513,1.001953,0.598145,-2.205658,0.224304,1118534.798535,201281465.201465,129827399.267399,62.009789,1,1,1,2,1,90.000000
2025-05-02 16:28:06.379,,,,,,,,,,,,,,,,,,,,,,,,,,,,,,,,,,,,,,,,,,/muse/elements/blink
2025-05-02 16:28:06.569,0.2857027299848549,0.2372995882123777,0,0.01660958911855389,0.4559607062384619,0.03662077578630203,0,0.07712728217949989,0.6824607889926331,0.3338326644068907,0,0.6422805141595934,0.6043635868705771,0.3551211553679351,0,0.4450791371265482,0.1775242001120323,-0.2887007638877143,0,0.1933857144811814,811.5018315018315,794.5787545787546,872.3443223443223,838.901098901099,559.2673992673992,-0.028320,0.026062,1.004272,0.844879,-1.196289,-0.291595,1121758.241758,201639267.399267,129895091.575092,62.009789,1,2,1,2,2,90.000000
2025-05-02 16:28:07.569,0.2857027299848549,0.1780084236599658,0,0.01660958911855389,0.4559607062384619,0.09988568077681675,0,0.07712728217949989,0.6824607889926331,0.3422439304669588,0,0.6422805141595934,0.6043635868705771,0.2221319028112384,0,0.4450791371265482,0.1775242001120323,-0.3099479096904947,0,0.1933857144811814,798.6080586080586,797.3992673992674,837.2893772893773,811.5018315018315,733.7362637362637,-0.021484,0.024414,1.008545,0.530853,-1.338348,0.463562,1122564.102564,201804468.864469,129882197.802198,81.738380,1,2,1,2,2,90.000000
2025-05-02 16:28:08.448,,,,,,,,,,,,,,,,,,,,,,,,,,,,,,,,,,,,,,,,,,/muse/elements/blink
2025-05-02 16:28:08.569,0.3807724983338962,0.05797414265240886,0,0.4294884524264988,0.1673936039285565,-0.1752629203829703,0,0.1618143494458736,0.550855403338067,0.4149756677152412,0,0.1394691316526332,0.464103229831366,-0.1936416595139028,0,0.4087646623304267,-0.1754976273354434,-0.4076662038115644,0,-0.302836847370326,833.2600732600733,796.5934065934066,745.0183150183151,829.6336996336996,697.0695970695971,-0.026123,0.024841,1.006531,0.403748,-1.390686,0.014954,1121758.241758,201719047.619048,129787912.087912,82.702164,1,1,1,1,1,90.000000
2025-05-02 16:28:09.569,0.47389485247254,0.5307270038315235,0,0.4732885284719939,0.201393668156886,-0.08258500904846619,0,0.1813702387281129,0.5426136572256004,0.3262843121455701,0,0.006962758493896594,0.4467076144979901,-0.05174993904520227,0,0.4251192677384072,-0.1616985785109854,-0.2625264221082177,0,-0.2952679640511428,806.2637362637363,788.5347985347986,884.4322344322345,827.6190476190476,640.6593406593407,-0.026733,0.022827,0.999878,0.740204,-1.226196,-0.665436,1115311.355311,201589304.029304,129771794.871795,82.702164,1,1,1,2,1,90.000000
2025-05-02 16:28:10.295,,,,,,,,,,,,,,,,,,,,,,,,,,,,,,,,,,,,,,,,,,/muse/elements/blink
2025-05-02 16:28:10.569,0.03628680098837758,0.514074806343959,0,0.4160884358802967,-0.3203459075070057,0.09663342749603626,0,0.1268430093978559,0.347636246954126,-0.03666156694307779,0,0.2859267039852159,0.4362828354234008,-0.01453580356418321,0,0.33617115452116,0.04770438924147022,-0.2640236183418654,0,0.02946754172816152,811.9047619047619,812.3076923076924,782.893772893773,812.7106227106227,661.6117216117216,-0.024353,0.024902,1.004272,0.553284,-1.540222,-0.000000,1116923.076923,201399926.739927,129787912.087912,82.702164,1,1,1,2,1,90.000000
2025-05-02 16:28:11.569,0.03628680098837758,0.4545608169650977,0,0.2765897503914716,-0.3203459075070057,0.1483139013956503,0,0.01571586816828048,0.347636246954126,-0.03666156694307779,0,0.252396160775545,0.4362828354234008,0.02669869856267053,0,0.3384286635911621,0.04770438924147022,-0.3099206294849292,0,-0.01040193640354198,817.1428571428571,804.2490842490843,734.1391941391942,803.8461538461539,666.0439560439561,-0.024048,0.022705,1.003235,0.560760,-1.360779,0.179443,1117728.937729,201229084.249084,129836263.736264,82.702164,1,1,1,1,1,90.000000
2025-05-02 16:28:12.106,,,,,,,,,,,,,,,,,,,,,,,,,,,,,,,,,,,,,,,,,,/muse/elements/blink
2025-05-02 16:28:12.569,0.2203368255863369,0.376236596211662,0,0.2687564308101681,-0.03017522155914655,0.1359867565603015,0,0.1983322344627784,-0.06806346327998644,0.2147471282377246,0,0.05638545225302657,0.447595044154484,0.07929549786779601,0,0.5513277659888607,-0.02155063487777117,-0.3913283330446985,0,0.036904712905234,803.8461538461539,789.7435897435897,843.3333333333334,827.2161172161173,653.1501831501831,-0.029480,0.024963,1.006958,0.583191,-1.644897,0.471039,1124175.824176,201325787.545788,129933772.893773,71.696526,1,1,1,1,1,90.000000
2025-05-02 16:28:13.569,0.2203368255863369,0.4103943708166104,0,0.114170210622004,-0.03017522155914655,0.3287791168975686,0,0.008435420667917817,-0.06806346327998644,0.5185106725500109,0,0.5141708800363587,0.447595044154484,0.09004136139404992,0,0.5526598175618248,-0.02155063487777117,-0.2792363917535648,0,0.03432331164409341,823.992673992674,815.5311355311355,756.3003663003664,799.0109890109891,760.7326007326008,-0.030029,0.025635,0.999207,0.269165,-1.293488,-0.104675,1124981.684982,201358827.838828,129933772.893773,68.594391,1,1,1,1,1,90.000000
2025-05-02 16:28:14.569,0.3924542329970293,0.350369448207651,0,0.2407611833315619,0.3637543504614321,0.2848611860620672,0,0.09373251806615931,0.8797403340634776,0.3367744040892108,0,0.6131354079276615,0.4159394185683876,0.06456180669528221,0,0.3352916356280075,0.02623712107766734,-0.3368635858602416,0,-0.05929489623691903,805.4578754578755,795.3846153846154,751.4652014652015,823.992673992674,697.8754578754579,-0.022583,0.027100,1.006042,0.396271,-0.986938,0.201874,1129816.849817,201391868.131868,129882197.802198,68.594391,1,1,1,1,1,90.000000
2025-05-02 16:28:15.151,,,,,,,,,,,,,,,,,,,,,,,,,,,,,,,,,,,,,,,,,,/muse/elements/blink
2025-05-02 16:28:15.569,0.411638610670865,1.113745848196254,0,0.3558398327806434,0.353928250720622,1.089841629111926,0,0.1834332559188825,0.4885938159434445,0.9149716954196827,0,0.268050927466885,0.4681553150566361,0.09570344177100466,0,0.3146571013630732,-0.1535117438321242,-0.2299744733442669,0,-0.1997833724725358,811.0989010989011,809.0842490842491,853.0036630036631,828.8278388278388,581.4285714285714,-0.028381,0.030701,1.012878,0.844879,-1.831818,-0.007477,1134652.014652,201111428.571429,129752454.212454,68.594391,1,1,1,1,1,90.000000
2025-05-02 16:28:16.450,,,,,,,,,,,,,,,,,,,,,,,,,,,,,,,,,,,,,,,,,,/muse/elements/blink
2025-05-02 16:28:16.569,0.565490194864363,1.474560155269678,0,0.5102023745565338,0.5007598494018383,1.467502567009394,0,0.2806422820829398,0.1876290617968638,0.9092329686619676,0,0.1954208310989541,0.4492446164128406,0.1288220934883869,0,0.3564474898620575,-0.3409862618973481,-0.08035707337762138,0,-0.1499967099915893,806.2637362637363,812.7106227106227,749.4505494505495,792.5641025641025,724.4688644688645,-0.025269,0.028259,1.007751,0.620575,-1.218719,-0.134583,1139487.179487,201268571.428571,129779853.479853,68.594391,1,1,1,1,1,90.000000
2025-05-02 16:28:16.749,,,,,,,,,,,,,,,,,,,,,,,,,,,,,,,,,,,,,,,,,,/muse/elements/blink
2025-05-02 16:28:17.569,0.565490194864363,1.622557793924222,0,0.5102023745565338,0.5007598494018383,1.62480812101009,0,0.2806422820829398,0.1876290617968638,0.9092329686619676,0,0.1954208310989541,0.4492446164128406,0.1392358467834409,0,0.3564474898620575,-0.3409862618973481,-0.08051507490255719,0,-0.1499967099915893,838.901098901099,795.3846153846154,776.4468864468864,845.7509157509157,633.8095238095239,-0.033020,0.024109,1.004456,0.500946,-1.914062,-0.254211,1141904.761905,201416849.816850,129791941.391941,68.594391,1,1,1,1,1,90.000000
2025-05-02 16:28:18.569,0.565490194864363,0.5288001124905957,0,0.5102023745565338,0.5007598494018383,0.5168244989074232,0,0.2806422820829398,0.1876290617968638,0.3037467573590946,0,0.1954208310989541,0.4492446164128406,0.0222678720937132,0,0.3564474898620575,-0.3409862618973481,-0.3931164504838525,0,-0.1499967099915893,798.2051282051282,811.5018315018315,888.4615384615385,843.7362637362637,706.3369963369963,-0.060425,-0.024292,1.000305,3.282318,-7.820740,4.463654,1147545.787546,201046153.846154,130018388.278388,68.594391,1,2,1,1,2,90.000000
2025-05-02 16:28:19.518,,,,,,,,,,,,,,,,,,,,,,,,,,,,,,,,,,,,,,,,,,/muse/elements/blink
2025-05-02 16:28:19.569,0.8665283042640172,0.370053256369464,0,0.7264559987054797,0.3234224857709294,0.2825165943426489,0,0.3427341154041481,1.057718812514833,0.4351495444206745,0,0.3065577312909263,0.4126419763842378,-0.05681037475414993,0,0.5681904224036995,-0.03931291065469028,-0.3429012835616811,0,-0.3812079752152417,956.959706959707,757.9120879120879,834.8717948717949,929.5604395604396,669.2673992673992,0.020264,-0.000671,1.000427,0.037384,0.179443,-0.104675,1141904.761905,200860000.000000,129112600.732601,68.594391,1,1,1,1,1,90.000000
2025-05-02 16:28:20.569,0.2950856367843189,0.5105604292637843,0,0.7037575292542443,0.06148055156666875,0.05925580230801044,0,0.3149473245554149,0.8827302060642985,0.3275266839842044,0,0.294092140602394,0.2910978367592558,-0.0244815424813506,0,0.5726462557621046,-0.01414581784512219,-0.2736868677156552,0,-0.3753154164160118,863.8827838827839,785.3113553113553,765.5677655677656,868.7179487179487,666.8498168498169,-0.026978,-0.008545,1.001404,0.755157,2.086029,-0.785065,1147545.787546,201125934.065934,129677509.157509,68.594391,1,1,1,1,1,90.000000
2025-05-02 16:28:20.648,,,,,,,,,,,,,,,,,,,,,,,,,,,,,,,,,,,,,,,,,,/muse/elements/blink
2025-05-02 16:28:21.574,0.2950856367843189,0.5105604292637843,0,0.7037575292542443,0.06148055156666875,0.05925580230801044,0,0.3149473245554149,0.8827302060642985,0.3275266839842044,0,0.294092140602394,0.2910978367592558,-0.0244815424813506,0,0.5726462557621046,-0.01414581784512219,-0.2736868677156552,0,-0.3753154164160118,791.3553113553114,809.4871794871796,843.3333333333334,803.4432234432235,670.4761904761905,-0.027039,0.001099,1.006653,-0.239258,-1.188812,-0.545807,1173333.333333,201027619.047619,129496190.476190,81.254211,1,1,1,1,1,90.000000
2025-05-02 16:28:21.884,,,,,,,,,,,,,,,,,,,,,,,,,,,,,,,,,,,,,,,,,,/muse/elements/blink
2025-05-02 16:28:22.569,0.2950856367843189,0.5105604292637843,0,0.7037575292542443,0.06148055156666875,0.05925580230801044,0,0.3149473245554149,0.8827302060642985,0.3275266839842044,0,0.294092140602394,0.2910978367592558,-0.0244815424813506,0,0.5726462557621046,-0.01414581784512219,-0.2736868677156552,0,-0.3753154164160118,815.1282051282052,804.6520146520147,848.1684981684982,805.4578754578755,589.8901098901099,-0.012329,0.005737,1.006958,0.403748,-0.942078,-0.396271,1170915.750916,201314505.494505,129736336.996337,96.831726,1,2,1,1,2,90.000000
2025-05-02 16:28:23.569,0.09827929248059673,0.5302312666974544,0,0.2138534905202869,0.3474815443603811,0.3811446642954066,0,0.1960573201325355,0.2017934144397824,0.4780054881618547,0,0.8771171574310314,0.2358534178264575,0.3204648543822751,0,0.5423115588535267,-0.05379772410212286,-0.4036490712685271,0,0.008141291657073703,807.0695970695971,794.1758241758242,601.5750915750916,819.5604395604396,936.007326007326,-0.014954,0.011719,1.003235,0.643005,-2.392578,0.246735,1170915.750916,201135604.395604,129597728.937729,105.676605,1,1,1,1,1,90.000000
2025-05-02 16:28:24.477,,,,,,,,,,,,,,,,,,,,,,,,,,,,,,,,,,,,,,,,,,/muse/elements/blink
2025-05-02 16:28:24.573,0.3111844408024539,0.5436885307864693,0,0.2276476484330701,0.3879095815773465,0.3283947181498404,0,0.2032256458733137,0.4669231268468491,0.4609409128595804,0,0.8776897316187448,0.2647567300368794,0.2976060351886505,0,0.4376983010713221,-0.1567680926469444,-0.4797449039527221,0,-0.03070977899453758,821.5750915750916,778.8644688644689,868.7179487179487,845.3479853479854,593.1135531135532,-0.010193,0.007568,1.002014,0.426178,-1.218719,0.463562,1178168.498168,201520000.000000,129484908.424908,105.676605,1,1,1,1,1,90.000000
2025-05-02 16:28:25.569,0.5332636624564717,0.3682430775973007,0,0.1566612370803495,0.376177429699192,0.1673729187370282,0,0.09005072397970576,0.4080347466336957,-0.05941068725603513,0,0.373397623422719,0.3523840492247086,0.2662411737892489,0,0.2491191930848487,-0.2850139310200148,-0.4318273302739513,0,-0.07310501843447435,809.8901098901099,803.040293040293,754.2857142857143,807.4725274725275,883.2234432234433,-0.003662,0.011902,1.004089,0.530853,-1.345825,-0.119629,1187838.827839,201613479.853480,129426080.586081,105.676605,1,1,1,2,1,90.000000
2025-05-02 16:28:26.569,1.001007070410785,1.124464806875541,0,1.201868158652648,0.9722448791099216,0.693004133962676,0,1.030182173095996,0.9755063870505496,0.620743611099567,0,1.164744719393755,0.6042128731974706,0.2580755997762447,0,0.5712546212409234,0.1833801552895055,-0.290665293270827,0,-0.03740704201025643,817.1428571428571,803.040293040293,749.8534798534798,806.2637362637363,642.6739926739926,-0.004578,0.015747,1.012634,1.016846,-1.772003,-0.441132,1188644.688645,201623956.043956,129419633.699634,105.676605,1,1,1,1,1,90.000000
2025-05-02 16:28:27.154,,,,,,,,,,,,,,,,,,,,,,,,,,,,,,,,,,,,,,,,,,/muse/elements/blink
2025-05-02 16:28:27.568,1.103949261019369,1.306952866064513,0,1.401162133354067,1.058833452514111,0.8633926525972404,0,1.260363349166416,0.9978370469678626,0.6168869806648326,0,1.170069070416174,0.6523476892131552,0.2025486351179937,0,0.7335510621324592,0.1081108613525595,-0.4950724650701662,0,-0.007766989325800439,810.2930402930403,807.0695970695971,876.7765567765568,821.978021978022,614.4688644688645,-0.010193,0.012634,1.002380,0.306549,-1.674805,-0.216827,1191868.131868,201658608.058608,129389816.849817,105.676605,1,1,1,2,1,90.000000
2025-05-02 16:28:28.568,0.3587116695561759,1.072357998113642,0,0.2330492330340438,0.1081065226061209,0.7484887758413216,0,0.384617739962239,0.515863353677037,0.5261125070164,0,0.6326736700793213,0.3747197232552641,0.2013283069722655,0,0.3516848461243173,-0.05398900026340176,-0.4115701199196236,0,-0.1456261946191026,807.8754578754579,792.1611721611722,788.5347985347986,798.2051282051282,748.2417582417582,-0.004700,0.016174,1.007935,0.485992,-1.465454,0.388794,1191062.271062,201607032.967033,129347912.087912,105.676605,1,1,1,2,1,90.000000
2025-05-02 16:28:29.569,0.385726122533617,0.4789987420213007,0,0.2014004368362632,0.08369552751119605,0.2446151664912682,0,0.09217469436655609,0.6290501585130932,0.5299530068513026,0,0.6496914352658307,0.3001945436381259,0.04903844801571943,0,0.3507645785645997,-0.07992437410123567,-0.3638523638011511,0,-0.1050299270392684,801.8315018315019,800.6227106227107,725.6776556776557,816.7399267399268,855.8241758241759,-0.006226,0.020874,1.005920,0.643005,-1.592560,-0.231781,1185421.245421,201540952.380952,129279413.919414,105.676605,1,1,1,2,1,90.000000
2025-05-02 16:28:30.574,0.2768581928307538,0.520624741940316,0,0.1497921012393704,-0.02358918161461488,0.09765102877090628,0,-0.1231283207739874,0.6061616744888033,0.4979606865131412,0,0.4099731291168467,0.2891361066361982,0.02352242477151604,0,0.1449938360646745,-0.1831960995551031,-0.3599658632682338,0,-0.03586653349498143,833.2600732600733,788.5347985347986,915.8608058608058,817.948717948718,598.7545787545788,-0.016602,0.016235,1.003052,0.657959,-1.084137,-0.044861,1179780.219780,201434578.754579,129198021.978022,91.420082,1,1,1,1,1,90.000000
2025-05-02 16:28:30.671,,,,,,,,,,,,,,,,,,,,,,,,,,,,,,,,,,,,,,,,,,/muse/elements/blink
2025-05-02 16:28:30.864,,,,,,,,,,,,,,,,,,,,,,,,,,,,,,,,,,,,,,,,,,/muse/elements/blink
2025-05-02 16:28:31.574,-0.09953228569737552,1.102613387912576,0,0.1153958226624508,-0.2939214590035295,1.176409138780829,0,-0.1371978125330257,0.2206438499837411,0.6200444891652948,0,0.3277830630150224,0.2581463738379561,0.05169191787498203,0,0.1049124915575064,-0.2334781416352786,-0.3455078697781995,0,0.08329305065944355,814.7252747252747,792.1611721611722,794.981684981685,800.2197802197802,767.1794871794872,-0.008240,0.022705,1.004333,0.927124,-1.794434,0.157013,1182197.802198,201359633.699634,129170622.710623,82.795685,1,1,1,2,1,90.000000
2025-05-02 16:28:32.307,,,,,,,,,,,,,,,,,,,,,,,,,,,,,,,,,,,,,,,,,,/muse/elements/blink
2025-05-02 16:28:32.569,-0.09953228569737552,1.293868466178373,0,0.1153958226624508,-0.2939214590035295,1.265443172570892,0,-0.1371978125330257,0.2206438499837411,0.6968369761633492,0,0.3277830630150224,0.2581463738379561,0.01234227461275911,0,0.1049124915575064,-0.2334781416352786,-0.3615255316541117,0,0.08329305065944355,908.6080586080586,770.4029304029305,690.6227106227107,921.5018315018315,618.4981684981685,-0.009277,0.022217,1.005371,0.620575,-1.121521,0.052338,1175750.915751,201275824.175824,128878095.238095,82.795685,1,1,1,2,1,90.000000
2025-05-02 16:28:32.585,,,,,,,,,,,,,,,,,,,,,,,,,,,,,,,,,,,,,,,,,,/muse/elements/blink
2025-05-02 16:28:33.577,-0.09953228569737552,1.220932517350333,0,0.1153958226624508,-0.2939214590035295,0.9244670980293076,0,-0.1371978125330257,0.2206438499837411,0.5556901162134757,0,0.3277830630150224,0.2581463738379561,0.05997288702313542,0,0.1049124915575064,-0.2334781416352786,-0.36959650558162,0,0.08329305065944355,799.8168498168499,792.967032967033,935.6043956043957,780.8791208791209,535.8974358974359,-0.012390,0.017822,0.998840,0.523376,-1.988831,-0.134583,1193479.853480,201285494.505495,128941758.241758,82.795685,1,2,1,2,2,90.000000
2025-05-02 16:28:34.574,0.3637599645672982,0.5112885257577006,0,-0.2363568623040928,0.2592083472972914,0.05490109226475389,0,0.3687312288420546,0.1661824764941956,0.4902643414263195,0,0.07230594048238671,0.2658940075673168,0.07895971082506181,0,0.3624334954631608,-0.06221535624237539,-0.2148231237517962,0,-0.2945738001709958,801.8315018315019,799.4139194139194,809.0842490842491,798.6080586080586,632.6007326007326,-0.010498,0.023193,1.009216,0.889740,-1.846771,-0.269165,1150769.230769,201541758.241758,128995750.915751,82.795685,1,1,1,1,1,90.000000
2025-05-02 16:28:35.119,,,,,,,,,,,,,,,,,,,,,,,,,,,,,,,,,,,,,,,,,,/muse/elements/blink
2025-05-02 16:28:35.569,0.3067739277992167,0.8906057855060593,0,-0.05554937452225765,0.3681960268458981,0.6609121755272878,0,0.4554647053022648,0.4744040268408775,0.4596411091439784,0,0.3653025367146721,0.32932104304633,0.1429308382985465,0,0.3848967476462624,-0.1044653021990271,-0.2563322683519882,0,-0.2577104419749299,811.9047619047619,802.6373626373627,749.8534798534798,821.1721611721612,677.3260073260074,-0.017029,0.024170,1.004761,0.373840,-1.390686,0.164490,1171721.611722,201319340.659341,128971575.091575,82.939880,1,1,1,1,1,90.000000
2025-05-02 16:28:36.569,0.2044358914188819,1.016209211570718,0,0.08254252312632977,0.4532410561094365,0.888403164438781,0,0.5667588670580505,0.4744040268408775,0.3892756512877245,0,0.3539037134613949,0.4023287184744626,-0.02415388069649138,0,0.4253680765486468,-0.1598568001062858,-0.1947794594495615,0,-0.1970916064629123,811.9047619047619,799.0109890109891,913.4432234432235,790.5494505494506,609.6336996336996,-0.018921,0.021423,1.004578,0.493469,-1.600037,-0.403748,1184615.384615,201229084.249084,128978827.838828,86.111557,1,1,1,1,1,90.000000
2025-05-02 16:28:37.569,0.3137568343152581,0.2824742112685301,0,0.2041784274277413,0.3635068944062553,0.2248093070167452,0,0.3271974932738684,0.4912101603325129,0.04228818362186815,0,0.6232310753775566,0.345288900441249,-0.02373062197568846,0,0.3746183735451237,-0.01346675800795317,-0.3288614233360072,0,-0.01011879231258721,805.8608058608058,796.5934065934066,783.2967032967033,801.4285714285714,861.8681318681319,-0.015930,0.026794,1.007507,0.448608,-1.271057,0.328979,1124175.824176,201172673.992674,128981245.421245,86.111557,1,1,1,1,1,90.000000
2025-05-02 16:28:38.569,0.06093635071488037,0.6747169606522009,0,0.1920302957285378,0.1594428707230267,0.3729919515934685,0,-0.01022475398258246,0.5020026404125666,0.3687531558161247,0,0.6435364425652248,0.3255012438744602,0.1014429646529146,0,0.3455021445148087,-0.07313639003531516,-0.3753130412028811,0,0.1423155349858417,837.6923076923077,785.3113553113553,846.5567765567765,840.5128205128206,639.8534798534798,-0.017212,0.022095,1.004456,0.463562,-1.181335,-0.560760,1116923.076923,201154139.194139,128940146.520147,86.111557,1,1,1,1,1,90.000000
2025-05-02 16:28:38.592,,,,,,,,,,,,,,,,,,,,,,,,,,,,,,,,,,,,,,,,,,/muse/elements/blink
2025-05-02 16:28:39.569,0.28034029695316,0.7409822977661711,0,0.1100970592902261,0.1075585007372928,0.5091036598237301,0,-0.06055796846319805,0.3256922730551663,0.4313118461958356,0,0.2386493573335329,0.09951219012234222,0.107357849807928,0,0.3009353590254548,0.05420164567513516,-0.3993534039984464,0,0.1723006956926573,800.6227106227107,792.5641025641025,865.4945054945056,813.1135531135532,674.9084249084249,-0.018921,0.023010,1.004089,0.560760,-1.457977,-0.456085,1145934.065934,201076776.556777,128977216.117216,77.639587,1,1,1,1,1,90.000000
2025-05-02 16:28:40.131,,,,,,,,,,,,,,,,,,,,,,,,,,,,,,,,,,,,,,,,,,/muse/elements/blink
2025-05-02 16:28:40.408,,,,,,,,,,,,,,,,,,,,,,,,,,,,,,,,,,,,,,,,,,/muse/elements/blink
2025-05-02 16:28:40.569,0.65886932513936,1.242666546213616,0,0.6227453516724271,0.6085931549812538,0.8522481261978672,0,0.6637950463067892,0.6696542047624542,0.7188500508889614,0,0.7439856683623143,0.3764255580274324,0.09479177123258049,0,0.3713433349373098,-0.02556550701025996,-0.3278371537624134,0,0.1750855260671066,819.1575091575091,780.4761904761905,638.6446886446887,804.6520146520147,828.021978021978,-0.014465,0.022461,1.005859,0.613098,-2.086029,0.097198,1157216.117216,201190402.930403,128975604.395604,77.639587,1,1,1,1,1,90.000000
2025-05-02 16:28:41.569,0.65886932513936,1.386111823377086,0,0.6227453516724271,0.6085931549812538,1.022464847039556,0,0.6637950463067892,0.6696542047624542,0.8027432781605837,0,0.7439856683623143,0.3764255580274324,0.181875079323769,0,0.3713433349373098,-0.02556550701025996,-0.2992104375028816,0,0.1750855260671066,813.5164835164835,790.5494505494506,822.3809523809524,813.919413919414,591.0989010989011,-0.019287,0.026184,1.002625,0.231781,-1.114044,0.059814,1144322.344322,201195238.095238,129020732.600733,77.639587,1,1,1,1,1,90.000000
2025-05-02 16:28:42.239,,,,,,,,,,,,,,,,,,,,,,,,,,,,,,,,,,,,,,,,,,/muse/elements/blink
2025-05-02 16:28:42.569,0.04580571339110478,0.6732650803192488,0,-0.05842109840479996,0.1724491656855443,0.2861174561825161,0,0.4996754859510121,0.4181823798517078,0.6878196244377934,0,0.5181367706305697,0.3940320495057313,0.1828761443836884,0,0.3587136738430973,-0.01543446965775039,-0.3760033107369231,0,0.1527849357342613,780.8791208791209,799.0109890109891,792.967032967033,795.3846153846154,752.6739926739926,-0.016602,0.024048,1.002502,0.403748,-1.472931,-0.343933,1139487.179487,200952673.992674,128804761.904762,77.639587,1,1,1,1,1,90.000000
2025-05-02 16:28:43.569,0.04580571339110478,0.8239811171731677,0,-0.05842109840479996,0.1724491656855443,0.2549690891048495,0,0.4996754859510121,0.4181823798517078,0.4331695420840859,0,0.5181367706305697,0.3940320495057313,0.2455815357908836,0,0.3587136738430973,-0.01543446965775039,-0.297691002603193,0,0.1527849357342613,801.4285714285714,804.2490842490843,798.2051282051282,788.1318681318681,687.3992673992674,-0.022461,0.024231,1.008606,0.590668,-1.502838,-0.403748,1166080.586081,200804395.604396,128700805.860806,77.639587,1,1,1,1,1,90.000000
2025-05-02 16:28:44.496,,,,,,,,,,,,,,,,,,,,,,,,,,,,,,,,,,,,,,,,,,/muse/elements/blink
2025-05-02 16:28:44.569,0.04580571339110478,0.5405260403463065,0,1.493483541966021,0.1724491656855443,0.209145037600826,0,0.6938876468540726,0.4181823798517078,0.4777245359830028,0,1.034026346148244,0.3940320495057313,0.1877515866091081,0,0.4690031340753852,-0.01543446965775039,-0.2012964729051243,0,0.08672128204136717,600.7692307692308,857.4358974358975,761.941391941392,595.1282051282052,658.3882783882784,-0.021973,0.023132,1.005798,0.672913,-1.607513,0.456085,1182197.802198,200609377.289377,128584761.904762,79.511375,1,1,1,1,1,90.000000
2025-05-02 16:28:44.775,,,,,,,,,,,,,,,,,,,,,,,,,,,,,,,,,,,,,,,,,,/muse/elements/blink
2025-05-02 16:28:45.575,0.04580571339110478,0.5714311800215334,0,1.715006768578954,0.1724491656855443,0.1786636764094295,0,0.6940757917695942,0.4181823798517078,0.2954059241281761,0,1.031425280408107,0.3940320495057313,0.02413719263447559,0,0.3556574101857037,-0.01543446965775039,-0.03735306267602239,0,-0.07514257992820343,812.3076923076924,794.981684981685,844.9450549450549,790.952380952381,675.3113553113553,-0.019226,0.025330,1.008423,0.448608,-1.540222,-0.000000,1245860.805861,201360439.560440,128949816.849817,81.364288,1,1,1,1,1,90.000000
2025-05-02 16:28:46.226,,,,,,,,,,,,,,,,,,,,,,,,,,,,,,,,,,,,,,,,,,/muse/elements/blink
2025-05-02 16:28:46.504,,,,,,,,,,,,,,,,,,,,,,,,,,,,,,,,,,,,,,,,,,/muse/elements/blink
2025-05-02 16:28:46.568,0.04580571339110478,0.6623370689323037,0,1.715006768578954,0.1724491656855443,0.2853518880491053,0,0.6940757917695942,0.4181823798517078,0.2807229358576961,0,1.031425280408107,0.3940320495057313,0.1902949530228837,0,0.3556574101857037,-0.01543446965775039,-0.3437882807095317,0,-0.07514257992820343,841.7216117216118,790.952380952381,769.1941391941392,836.4835164835165,674.1025641025641,-0.017334,0.025879,1.006836,0.635529,-1.614990,0.104675,1220879.120879,201458754.578755,128996556.776557,84.032463,1,1,1,1,1,90.000000
2025-05-02 16:28:47.569,0.04580571339110478,0.8515741035684238,0,1.715006768578954,0.1724491656855443,0.4697767992994838,0,0.6940757917695942,0.4181823798517078,0.1891606577202212,0,1.031425280408107,0.3940320495057313,0.2284874973468743,0,0.3556574101857037,-0.01543446965775039,-0.389718600247017,0,-0.07514257992820343,807.4725274725275,798.2051282051282,838.4981684981685,809.4871794871796,610.8424908424909,-0.016479,0.029297,1.003601,0.545807,-1.457977,0.216827,1224908.424908,201321758.241758,129019926.739927,86.511948,1,2,1,1,2,90.000000
2025-05-02 16:28:48.569,0.262651289515232,0.7134847478200993,0,0.114283398402856,0.1500062941639126,0.2424820449558563,0,0.3730784018475994,0.6045301883253632,0.4218319538082093,0,0.4302265029136174,0.4389550702633858,0.1578976494666149,0,0.443035857621496,-0.09158216786253336,-0.4693456115798914,0,-0.1591784751190303,809.0842490842491,796.996336996337,777.2527472527473,818.7545787545788,677.3260073260074,-0.020386,0.029175,1.008179,0.695343,-1.300964,0.059814,1234578.754579,201353992.673993,128989304.029304,86.511948,1,1,1,1,1,90.000000
2025-05-02 16:28:48.959,,,,,,,,,,,,,,,,,,,,,,,,,,,,,,,,,,,,,,,,,,/muse/elements/blink
2025-05-02 16:28:49.569,0.4198142048307515,0.530413522436316,0,0.1145815737494719,0.249658946076723,0.2994786163749061,0,0.3682264318299602,0.6557852374347732,0.496814719878666,0,0.431888120257842,0.5255824913517561,0.1726251101123683,0,0.483514529373485,-0.1811156420443867,-0.2784448238265313,0,0.01075787693928412,804.2490842490843,782.4908424908425,730.5128205128206,798.6080586080586,781.6849816849817,-0.015076,0.027466,1.009094,0.904694,-1.480408,0.059814,1235384.615385,201340293.040293,128965128.205128,86.511948,1,1,1,1,1,90.000000
2025-05-02 16:28:50.068,,,,,,,,,,,,,,,,,,,,,,,,,,,,,,,,,,,,,,,,,,/muse/elements/blink
2025-05-02 16:28:50.569,0.460495305216603,0.462049226715906,0,0.1705499564829102,0.2719738529090632,0.336574694944082,0,0.2543029382383563,0.6425496361496152,0.4619143326191356,0,0.4054249366580456,0.5730412847681323,0.07086242508685062,0,0.5027752311981479,-0.243074763307183,-0.2574713834248374,0,0.1028891976287888,818.3516483516484,796.5934065934066,855.8241758241759,826.4102564102565,590.2930402930403,-0.019348,0.023315,1.002930,0.336456,-1.241150,-0.044861,1237802.197802,201437802.197802,128924835.164835,86.511948,1,1,1,1,1,90.000000
2025-05-02 16:28:51.570,0.460495305216603,-0.0122846254572192,0,0.1705499564829102,0.2719738529090632,0.300564053271937,0,0.2543029382383563,0.6425496361496152,0.4071069324605761,0,0.4054249366580456,0.5730412847681323,0.1270336175095889,0,0.5027752311981479,-0.243074763307183,-0.3448962468668867,0,0.1028891976287888,783.2967032967033,794.5787545787546,797.8021978021978,796.5934065934066,685.7875457875458,-0.009583,0.027161,1.005920,1.069183,-1.315918,0.441132,1232161.172161,201324175.824176,128976410.256410,86.511948,1,2,1,1,2,90.000000
2025-05-02 16:28:52.095,,,,,,,,,,,,,,,,,,,,,,,,,,,,,,,,,,,,,,,,,,/muse/elements/blink
2025-05-02 16:28:52.569,0.3747569581131768,0.0708394875182887,0,-0.2675498592850711,0.7576909403590243,0.2828763935819881,0,0.1113792291405541,1.204487306720989,0.4090423356098323,0,1.104594602250731,0.6435405444666322,0.05728588327152286,0,0.3622108543081146,-0.120262998098518,-0.269435203286164,0,-0.08213142180325846,815.1282051282052,788.5347985347986,700.6959706959707,806.2637362637363,664.0293040293041,-0.013184,0.032471,1.001709,0.643005,-2.355194,0.433655,1228131.868132,201476483.516484,128992527.472527,86.511948,1,1,1,1,1,90.000000
2025-05-02 16:28:53.569,0.3991639496540419,0.1999179996555363,0,0.02712342863531445,0.2509737368660291,-0.1055784034354701,0,0.3386355190687054,0.3264790665045229,0.2164960116614253,0,0.6048335210991433,0.3601896141440398,0.2013613896016416,0,0.4042205467474303,-0.1084575294190433,-0.1862089759516942,0,-0.03168759091048974,812.3076923076924,793.7728937728938,837.6923076923077,816.3369963369963,570.1465201465202,-0.016052,0.028931,1.007507,0.396271,-1.226196,-0.261688,1230549.450549,201441831.501832,128956263.736264,86.511948,1,1,1,1,1,90.000000
2025-05-02 16:28:53.913,,,,,,,,,,,,,,,,,,,,,,,,,,,,,,,,,,,,,,,,,,/muse/elements/blink
2025-05-02 16:28:54.572,0.3883927682015387,0.4229703661781519,0,0.0929881058430877,0.2183891499246662,0.2352921598364187,0,0.3352731344786406,0.3476083954931499,0.4154653420167654,0,0.6048335210991433,0.3279086705339557,0.08453533572331551,0,0.4100355440989303,-0.07670822735119287,-0.2648147459270519,0,-0.02320365674336782,791.3553113553114,784.9084249084249,819.5604395604396,816.7399267399268,726.0805860805862,-0.012085,0.030701,1.005310,0.523376,-1.398163,-0.007477,1224908.424908,201441831.501832,128906300.366300,86.511948,1,1,1,1,1,90.000000
2025-05-02 16:28:55.573,0.8338475448490086,0.546700257799847,0,1.03775592934345,0.5765668448367549,0.3318966123306246,0,0.4938041667559127,0.9736043315866484,0.3904808851631796,0,0.6910671402392098,0.3355438889036845,0.03115959833073741,0,0.4014369364986635,0.05205800267592378,-0.303140901641515,0,-0.04973126499487922,634.6153846153846,851.7948717948718,747.8388278388279,619.7069597069598,648.3150183150183,-0.021729,0.028503,1.001648,0.620575,-1.629944,-0.194397,1222490.842491,201025201.465201,128828131.868132,86.511948,1,1,1,1,1,90.000000
2025-05-02 16:28:55.842,,,,,,,,,,,,,,,,,,,,,,,,,,,,,,,,,,,,,,,,,,/muse/elements/blink
2025-05-02 16:28:56.248,,,,,,,,,,,,,,,,,,,,,,,,,,,,,,,,,,,,,,,,,,/muse/elements/blink
2025-05-02 16:28:56.568,0.6128082243400848,0.6743679297048985,0,0.8231746722925739,0.5584143293678054,0.1552962756263036,0,0.4209836726783139,0.97264885545491,0.1417377709823987,0,0.6095156807821451,0.3369904569367501,0.0692129144653864,0,0.3818197353156045,0.07678563608235067,-0.1837151913833963,0,-0.0509068564087163,813.5164835164835,790.952380952381,801.8315018315019,811.0989010989011,769.5970695970697,-0.014160,0.031311,1.006653,0.613098,-1.420593,0.157013,1213626.373626,201188791.208791,128940146.520147,86.511948,1,1,1,1,1,90.000000
2025-05-02 16:28:57.569,0.39005317623437,0.7238600095543454,0,0.5438876545875883,0.5441279367950995,0.09196852453088757,0,0.3019608053533808,0.9575172998085872,0.0321957110128813,0,0.5278891799945524,0.3475983694096882,0.0937124365813804,0,0.3854446423216372,0.107423876519508,-0.1486709291469401,0,-0.05514701213588866,805.8608058608058,805.8608058608058,809.0842490842491,829.6336996336996,622.1245421245421,-0.017761,0.032532,1.002991,0.605621,-1.727142,-0.014954,1212820.512821,201053406.593407,128988498.168498,86.511948,1,1,1,2,1,90.000000
2025-05-02 16:28:58.569,0.2659659190824386,0.6220875980333114,0,-0.1052477445906965,0.09636120566028027,0.0439692843121308,0,0.06624987321143004,0.7537640298494952,0.421009567696813,0,0.3560449243992087,0.5588807367065056,0.0411458797318436,0,0.3776746143296034,-0.04574417218987464,-0.3259914455750796,0,0.05622502686576986,780.4761904761905,816.3369963369963,782.893772893773,757.1062271062272,651.5384615384615,-0.016296,0.034607,1.006470,0.643005,-1.644897,-0.299072,1206373.626374,201046959.706960,129011062.271062,86.511948,1,1,1,1,1,90.000000
2025-05-02 16:28:58.787,,,,,,,,,,,,,,,,,,,,,,,,,,,,,,,,,,,,,,,,,,/muse/elements/blink
2025-05-02 16:28:59.569,-0.08807429309312895,0.7462264926469614,0,-0.3206185291300871,0.3172184223999645,0.2116372187907471,0,0.04536880261999776,0.7537640298494952,0.3644483126072263,0,0.2607622251860126,0.5996786272935762,0.2039328952260674,0,0.3125608319174492,-0.1009485667870385,-0.341710249823023,0,-0.03358035423656899,817.1428571428571,795.3846153846154,950.1098901098901,816.7399267399268,597.5457875457876,-0.016296,0.033203,1.004333,0.874786,-1.697235,0.321503,1210402.930403,201208937.728938,129018315.018315,86.511948,1,1,1,1,1,90.000000
2025-05-02 16:29:00.569,0.2000715788392014,0.3046560240322751,0,-0.2752624318237226,0.1629775758769928,0.08539213280914121,0,0.02420857238024669,0.5589508663177194,0.04164001529507039,0,0.2138729185620426,0.2861712812976034,0.2057041219692916,0,0.2919339620707707,-0.08632428941287186,-0.5018998032030051,0,-0.06384159984306366,800.2197802197802,798.2051282051282,875.9706959706959,809.0842490842491,639.047619047619,-0.022217,0.037598,1.006226,0.366364,-2.183228,0.224304,1213626.373626,201123516.483516,129058608.058608,86.224274,1,1,1,2,1,90.000000
2025-05-02 16:29:01.569,0.3304623389933374,0.2287522766768526,0,0.3344642892226599,0.06268839049284028,0.05015626975369852,0,0.1008701474844524,0.8022008012129891,0.6063131240704608,0,0.6720649207858466,0.2667662264693227,0.1838075225985959,0,0.4750395377433799,0.01707256492403552,-0.3216578038072341,0,-0.04496471597464451,807.4725274725275,790.5494505494506,723.6630036630037,803.4432234432235,795.7875457875458,-0.020935,0.028992,0.998901,0.598145,-1.173859,0.373840,1213626.373626,201162197.802198,129047326.007326,73.804344,1,1,1,2,1,90.000000
2025-05-02 16:29:02.264,,,,,,,,,,,,,,,,,,,,,,,,,,,,,,,,,,,,,,,,,,/muse/elements/blink
2025-05-02 16:29:02.569,0.1079435733217546,0.5852296766793786,0,0.4476385192783099,0.1108444695343171,0.4408698603505734,0,0.3696300500962461,0.7804397358537645,0.6648510164133793,0,0.602652247975516,0.2892149571611213,0.1089173686121704,0,0.2976518128613633,-0.01756026469118247,-0.2995177684428315,0,-0.06137792837511136,803.4432234432235,788.1318681318681,831.2454212454213,802.6373626373627,572.5641025641025,-0.018860,0.033020,1.003479,0.807495,-1.899109,0.224304,1216043.956044,201434578.754579,129164175.824176,65.649498,1,1,1,2,1,90.000000
2025-05-02 16:29:03.568,,,,,,,,,,,,,,,,,,,,,,,,,,,,,,,,,,,,,,,,,,/muse/elements/blink
2025-05-02 16:29:03.578,0.3249785042508301,0.8517479579235204,0,0.5258205741518253,0.2774185160529696,0.6664001106151197,0,0.429372089125523,0.5943159881735046,0.5369913117829597,0,0.5241392989331711,0.2125696351316388,0.2214447078266604,0,0.1505344670078252,-0.1034119531363038,-0.2383864089790247,0,0.0296700287683689,862.2710622710623,774.0293040293041,904.1758241758242,840.5128205128206,653.5531135531136,-0.024170,0.036499,1.004639,0.269165,-1.046753,-0.814972,1225714.285714,201224249.084249,129070695.970696,64.327667,1,1,1,1,1,90.000000
2025-05-02 16:29:04.508,,,,,,,,,,,,,,,,,,,,,,,,,,,,,,,,,,,,,,,,,,/muse/elements/blink
2025-05-02 16:29:04.569,0.3249785042508301,0.6355764822088505,0,0.5258205741518253,0.2774185160529696,0.4984836343778573,0,0.429372089125523,0.5943159881735046,0.3123110335646223,0,0.5241392989331711,0.2125696351316388,0.2319115616583947,0,0.1505344670078252,-0.1034119531363038,-0.1537487535236447,0,0.0296700287683689,811.5018315018315,795.7875457875458,826.8131868131868,799.8168498168499,710.3663003663004,-0.015686,0.033020,1.002563,0.291595,-1.988831,-0.269165,1229743.589744,201358827.838828,129085201.465201,64.327667,1,1,1,1,1,90.000000
2025-05-02 16:29:05.569,0.3249785042508301,1.155579884270398,0,1.013814906212279,0.2774185160529696,0.7896683929862356,0,0.8565970311957452,0.5943159881735046,0.7129295235275526,0,0.804340199243841,0.2125696351316388,0.3226745157611072,0,0.5371432482131605,-0.1034119531363038,-0.4169838854106426,0,-0.02463631103426279,801.4285714285714,826.8131868131868,888.8644688644689,800.2197802197802,579.4139194139194,-0.030640,0.026123,1.003174,-0.014954,-1.091614,-0.500946,1227326.007326,201308058.608059,129148058.608059,64.327667,1,1,1,1,1,90.000000
2025-05-02 16:29:06.425,,,,,,,,,,,,,,,,,,,,,,,,,,,,,,,,,,,,,,,,,,/muse/elements/blink
2025-05-02 16:29:06.569,0.5357540391611791,1.21985174878228,0,0.8799656330248222,-0.004368578084333911,1.260802825011495,0,0.6619798186554469,0.156607301468968,0.8622016932716307,0,0.5869123394003882,0.4584436420105453,0.08471942301431369,0,0.4098339046946081,-0.05591896415639647,-0.2753499148680327,0,-0.07743208168336467,820.3663003663004,793.7728937728938,711.978021978022,838.0952380952381,833.2600732600733,-0.018738,0.029053,1.009094,0.493469,-1.996307,-0.201874,1225714.285714,201530476.190476,129092454.212454,64.327667,1,1,1,1,1,90.000000
