TimeStamp,Delta_TP9,Delta_AF7,Delta_AF8,Delta_TP10,Theta_TP9,Theta_AF7,Theta_AF8,Theta_TP10,Alpha_TP9,Alpha_AF7,Alpha_AF8,Alpha_TP10,Beta_TP9,Beta_AF7,Beta_AF8,Beta_TP10,Gamma_TP9,Gamma_AF7,Gamma_AF8,Gamma_TP10,RAW_TP9,RAW_AF7,RAW_AF8,RAW_TP10,AUX_RIGHT,Accelerometer_X,Accelerometer_Y,Accelerometer_Z,Gyro_X,Gyro_Y,Gyro_Z,PPG_Ambient,PPG_IR,PPG_Red,Heart_Rate,HeadBandOn,HSI_TP9,HSI_AF7,HSI_AF8,HSI_TP10,Battery,Elements
2025-05-02 15:36:33.008,,,,,,,,,,,,,,,,,,,,,,,,,,,,,,,,,,,,,,,,,,/muse/event/connected Muse-1C98
2025-05-02 15:36:33.115,,,,,,,,,,,,,,,,,,,,,,,,,,,,,,,,,,,,,,,,,,/muse/elements/blink
2025-05-02 15:36:33.739,,,,,,,,,,,,,,,,,,,,,,,,,,,,,,,,,,,,,,,,,,/muse/elements/blink
2025-05-02 15:36:34.009,1.285035243871082,1.069005545619491,0,1.697851836402281,0.8236997037155042,0.7674832004334635,0,0.916438741410563,0.5148383865080677,0.656693121001656,0,1.156324695380547,0.8085711208260803,0.03390233247505653,0,0.9689649095326902,0.3319453220622198,-0.09941023072695671,0,0.2271295889309877,758.3150183150184,717.2161172161173,295.7509157509157,750.6593406593407,674.5054945054945,-0.047180,0.029968,0.999878,0.777588,-4.097290,-0.142059,621318.681319,111328864.468864,71018901.098901,69.879707,1,2,1,2,2,80.000000
2025-05-02 15:36:35.024,1.285035243871082,1.069005545619491,0,1.697851836402281,0.8236997037155042,0.7674832004334635,0,0.916438741410563,0.5148383865080677,0.656693121001656,0,1.156324695380547,0.8085711208260803,0.03390233247505653,0,0.9689649095326902,0.3319453220622198,-0.09941023072695671,0,0.2271295889309877,522.6007326007326,772.014652014652,634.2124542124542,651.5384615384615,886.0439560439561,-0.191528,0.046448,1.065063,0.590668,-28.710938,5.988922,623736.263736,110014505.494505,71838461.538462,69.879707,1,2,1,2,2,80.000000
2025-05-02 15:36:35.267,,,,,,,,,,,,,,,,,,,,,,,,,,,,,,,,,,,,,,,,,,/muse/elements/blink
2025-05-02 15:36:35.462,,,,,,,,,,,,,,,,,,,,,,,,,,,,,,,,,,,,,,,,,,/muse/elements/blink
2025-05-02 15:36:35.893,,,,,,,,,,,,,,,,,,,,,,,,,,,,,,,,,,,,,,,,,,/muse/elements/blink
2025-05-02 15:36:36.009,1.285035243871082,1.069005545619491,0,1.697851836402281,0.8236997037155042,0.7674832004334635,0,0.916438741410563,0.5148383865080677,0.656693121001656,0,1.156324695380547,0.8085711208260803,0.03390233247505653,0,0.9689649095326902,0.3319453220622198,-0.09941023072695671,0,0.2271295889309877,691.4285714285714,779.2673992673992,703.1135531135532,797.3992673992674,621.7216117216118,-0.080872,0.038696,1.000793,0.912170,-2.646790,0.463562,632600.732601,108443882.783883,72309890.109890,69.879707,1,2,1,2,2,80.000000
2025-05-02 15:36:37.010,1.285035243871082,0.9509223545079756,0,1.697851836402281,0.8236997037155042,0.4153254156149047,0,0.916438741410563,0.5148383865080677,0.3089630117605415,0,1.156324695380547,0.8085711208260803,0.2386230317273177,0,0.9689649095326902,0.3319453220622198,-0.2530320684878161,0,0.2271295889309877,803.8461538461539,801.4285714285714,765.5677655677656,811.0989010989011,743.4065934065934,-0.073364,0.050293,1.005249,0.957031,-1.704712,0.269165,617289.377289,107314065.934066,72432380.952381,69.879707,1,2,1,1,2,80.000000
2025-05-02 15:36:38.017,1.204659932702564,1.007965016325463,0,0.8542107716572099,1.041927152557619,0.7784386672216078,0,0.4042254872471017,0.4742605728999749,0.5739116650848659,0,0.5835104590815884,0.6264508175871316,0.2700119208747068,0,0.5749235130609778,0.1831994139323979,-0.1792625695564679,0,0.2164204854493446,770,794.5787545787546,740.1831501831502,819.96336996337,770.8058608058608,-0.065491,0.052246,1.005981,1.001892,-1.854248,-0.403748,619706.959707,107542124.542125,72804688.644689,69.879707,1,1,1,1,1,80.000000
2025-05-02 15:36:38.801,,,,,,,,,,,,,,,,,,,,,,,,,,,,,,,,,,,,,,,,,,/muse/elements/blink
2025-05-02 15:36:39.009,1.187325319791882,0.9534587065040735,0,0.8666802613758359,0.7953378477057316,0.6900880451531308,0,0.3730769274599149,0.6497211379997299,0.7739741584868316,0,0.7108663400357118,0.5991950218533975,0.2734364778678627,0,0.5572648387800935,0.2436376494286757,-0.1821287542702293,0,0.2326771063305892,728.901098901099,778.0586080586081,786.1172161172161,812.3076923076924,506.4835164835165,-0.074951,0.054749,1.006409,0.471039,-1.719666,-0.508423,615677.655678,108062710.622711,73018241.758242,68.136078,1,1,1,1,1,80.000000
2025-05-02 15:36:39.302,,,,,,,,,,,,,,,,,,,,,,,,,,,,,,,,,,,,,,,,,,/muse/elements/blink
2025-05-02 15:36:40.014,1.160156207850271,0.9464315848613314,0,0.8778217623426139,0.4347643008211761,0.5494996191871232,0,0.3317957636824452,0.517522160317015,0.5956024760998276,0,0.6632091150082705,0.5896043412859709,0.2841804707205288,0,0.5261363679144893,0.2431124910117683,-0.02857589134581912,0,0.2841668501917469,838.4981684981685,770,807.0695970695971,780.0732600732601,806.6666666666667,-0.065491,0.061340,1.004822,0.927124,-1.906586,0.299072,623736.263736,108411648.351648,73131062.271062,66.766914,1,1,1,1,1,80.000000
2025-05-02 15:36:41.022,1.160156207850271,1.023528795807936,0,0.8778217623426139,0.4347643008211761,0.5460762593285386,0,0.3317957636824452,0.517522160317015,0.4525559821689517,0,0.6632091150082705,0.5896043412859709,0.188984066019931,0,0.5261363679144893,0.2431124910117683,-0.2732608285052933,0,0.2841668501917469,771.2087912087912,809.4871794871796,838.4981684981685,800.2197802197802,674.5054945054945,-0.070190,0.062561,1.001587,1.166382,-1.667328,0.418701,626959.706960,108093333.333333,72921538.461538,64.059494,1,1,1,1,1,80.000000
2025-05-02 15:36:41.834,,,,,,,,,,,,,,,,,,,,,,,,,,,,,,,,,,,,,,,,,,/muse/elements/blink
2025-05-02 15:36:42.019,1.154852754521688,1.241982787782739,0,0.9521444669627562,0.9484772321030137,0.4970441907730697,0,1.230853162538249,0.707805072172611,0.2995875124521232,0,0.8288004687302972,0.745675361597518,0.1690822645378835,0,0.6760252338994296,0.0072801252439146,-0.4198253481927033,0,-0.01106892154560176,745.8241758241759,783.2967032967033,757.1062271062272,802.2344322344322,654.7619047619048,-0.071289,0.067017,1.006958,0.276642,0.082245,3.686066,656776.556777,107398681.318681,72512161.172161,60.754566,1,1,1,1,1,80.000000
2025-05-02 15:36:42.354,,,,,,,,,,,,,,,,,,,,,,,,,,,,,,,,,,,,,,,,,,/muse/elements/blink
2025-05-02 15:36:43.009,0.998859162010903,1.300347590190113,0,0.9521444669627562,1.026152266925246,0.5728396109469794,0,1.230853162538249,0.4933231901503717,0.2762143530202649,0,0.8288004687302972,0.7163696510102633,0.1713599528441966,0,0.6760252338994296,0.04436463594946021,-0.4032983108105546,0,-0.01106892154560176,856.6300366300367,798.6080586080586,856.2271062271062,829.6336996336996,643.8827838827839,-0.116699,0.081970,0.985901,-4.777679,2.878571,-8.194580,656776.556777,106506593.406593,71306593.406593,59.018360,1,1,1,1,1,80.000000
2025-05-02 15:36:43.587,,,,,,,,,,,,,,,,,,,,,,,,,,,,,,,,,,,,,,,,,,/muse/elements/blink
2025-05-02 15:36:44.012,0.998859162010903,1.180702092154194,0,0.9521444669627562,1.026152266925246,0.8209319055869549,0,1.230853162538249,0.4933231901503717,0.3112373263939592,0,0.8288004687302972,0.7163696510102633,0.2518343058970898,0,0.6760252338994296,0.04436463594946021,-0.2731939012655823,0,-0.01106892154560176,720.8424908424909,755.8974358974359,740.5860805860806,783.2967032967033,743.8095238095239,-0.095459,0.077209,1.009033,1.196289,-3.095398,-0.680389,654358.974359,105759560.439560,71151868.131868,60.642300,1,1,1,1,1,80.000000
2025-05-02 15:36:44.085,,,,,,,,,,,,,,,,,,,,,,,,,,,,,,,,,,,,,,,,,,/muse/elements/blink
2025-05-02 15:36:44.882,,,,,,,,,,,,,,,,,,,,,,,,,,,,,,,,,,,,,,,,,,/muse/elements/jaw_clench
2025-05-02 15:36:45.009,0.998859162010903,1.227951571751312,0,0.9521444669627562,1.026152266925246,0.8746357870761904,0,1.230853162538249,0.4933231901503717,0.2939008923677597,0,0.8288004687302972,0.7163696510102633,0.2631270500399353,0,0.6760252338994296,0.04436463594946021,-0.2951185189413977,0,-0.01106892154560176,973.0769230769231,746.2271062271062,850.989010989011,852.1978021978023,576.996336996337,-0.097961,0.101257,0.998596,0.785065,-2.706604,-3.147736,655164.835165,105315531.135531,71187326.007326,62.258526,1,2,1,1,2,80.000000
2025-05-02 15:36:45.331,,,,,,,,,,,,,,,,,,,,,,,,,,,,,,,,,,,,,,,,,,/muse/elements/blink
2025-05-02 15:36:45.507,,,,,,,,,,,,,,,,,,,,,,,,,,,,,,,,,,,,,,,,,,/muse/elements/blink
2025-05-02 15:36:45.819,,,,,,,,,,,,,,,,,,,,,,,,,,,,,,,,,,,,,,,,,,/muse/elements/blink
2025-05-02 15:36:46.009,0.998859162010903,0.9787632856964128,0,0.9521444669627562,1.026152266925246,0.6367683090044053,0,1.230853162538249,0.4933231901503717,0.5522379086473407,0,0.8288004687302972,0.7163696510102633,0.1674850238859051,0,0.6760252338994296,0.04436463594946021,0.1903953978243802,0,-0.01106892154560176,801.8315018315019,796.5934065934066,873.1501831501831,676.1172161172161,583.040293040293,-0.079468,0.086975,1.002075,-1.278534,-3.708496,1.061707,656776.556777,105524249.084249,71569304.029304,64.167152,1,2,1,1,2,80.000000
2025-05-02 15:36:46.103,,,,,,,,,,,,,,,,,,,,,,,,,,,,,,,,,,,,,,,,,,/muse/elements/blink
2025-05-02 15:36:46.425,,,,,,,,,,,,,,,,,,,,,,,,,,,,,,,,,,,,,,,,,,/muse/elements/blink
2025-05-02 15:36:47.023,0.998859162010903,0.9015565493873716,0,0.9521444669627562,1.026152266925246,0.7164910577643662,0,1.230853162538249,0.4933231901503717,0.5522379086473407,0,0.8288004687302972,0.7163696510102633,0.2768904034883554,0,0.6760252338994296,0.04436463594946021,0.3006022173951854,0,-0.01106892154560176,791.3553113553114,795.7875457875458,753.4798534798535,824.3956043956044,851.3919413919414,-0.098694,0.077332,0.996338,1.465454,-0.373840,0.396271,662417.582418,106565421.245421,72099560.439560,68.177399,1,2,1,1,2,80.000000
2025-05-02 15:36:47.051,,,,,,,,,,,,,,,,,,,,,,,,,,,,,,,,,,,,,,,,,,/muse/elements/jaw_clench
2025-05-02 15:36:47.231,,,,,,,,,,,,,,,,,,,,,,,,,,,,,,,,,,,,,,,,,,/muse/elements/jaw_clench
2025-05-02 15:36:47.644,,,,,,,,,,,,,,,,,,,,,,,,,,,,,,,,,,,,,,,,,,/muse/elements/blink
2025-05-02 15:36:48.009,0.998859162010903,0.4764950315185464,0,0.9521444669627562,1.026152266925246,-0.01596852501362383,0,1.230853162538249,0.4933231901503717,-0.3002911788594304,0,0.8288004687302972,0.7163696510102633,0.1014546684056577,0,0.6760252338994296,0.04436463594946021,-0.3682007478054465,0,-0.01106892154560176,784.5054945054945,784.1025641025641,798.2051282051282,807.0695970695971,510.9157509157509,-0.105103,0.086609,0.995667,0.089722,-0.814972,0.433655,666446.886447,107181904.761905,72323589.743590,68.177399,1,2,1,1,2,80.000000
2025-05-02 15:36:48.446,,,,,,,,,,,,,,,,,,,,,,,,,,,,,,,,,,,,,,,,,,/muse/elements/blink
2025-05-02 15:36:49.018,0.998859162010903,0.5902463470223062,0,0.9521444669627562,1.026152266925246,-0.1252018232821466,0,1.230853162538249,0.4933231901503717,0.02959683359127651,0,0.8288004687302972,0.7163696510102633,0.1614080264743596,0,0.6760252338994296,0.04436463594946021,-0.3839455110777467,0,-0.01106892154560176,845.7509157509157,790.1465201465202,859.4505494505495,816.3369963369963,726.8864468864469,-0.115784,0.080383,0.995544,0.859833,-1.495361,0.971985,664835.164835,106553333.333333,72005274.725275,64.155815,1,2,1,1,2,80.000000
2025-05-02 15:36:49.663,,,,,,,,,,,,,,,,,,,,,,,,,,,,,,,,,,,,,,,,,,/muse/elements/blink
2025-05-02 15:36:50.009,0.998859162010903,0.6129334007648227,0,0.9521444669627562,1.026152266925246,-0.2423021473857603,0,1.230853162538249,0.4933231901503717,0.01084420063808536,0,0.8288004687302972,0.7163696510102633,0.2062907962901238,0,0.6760252338994296,0.04436463594946021,-0.4154391259680248,0,-0.01106892154560176,729.3040293040293,771.6117216117216,778.0586080586081,784.1025641025641,680.952380952381,-0.112244,0.083130,0.996216,0.874786,-1.846771,-0.276642,659194.139194,105405787.545788,71752234.432234,61.901947,1,2,1,1,2,80.000000
2025-05-02 15:36:50.599,,,,,,,,,,,,,,,,,,,,,,,,,,,,,,,,,,,,,,,,,,/muse/elements/blink
2025-05-02 15:36:51.009,0.998859162010903,0.6129334007648227,0,0.9521444669627562,1.026152266925246,-0.2423021473857603,0,1.230853162538249,0.4933231901503717,0.01084420063808536,0,0.8288004687302972,0.7163696510102633,0.2062907962901238,0,0.6760252338994296,0.04436463594946021,-0.4154391259680248,0,-0.01106892154560176,686.5934065934066,762.7472527472528,654.3589743589744,778.4615384615385,619.7069597069598,-0.104614,0.083557,1.005249,0.411224,-2.586975,0.665436,654358.974359,104536263.736264,72006080.586081,62.145157,1,2,1,1,2,80.000000
2025-05-02 15:36:52.008,0.998859162010903,0.7674520306076552,0,0.9521444669627562,1.026152266925246,0.2253848229408522,0,1.230853162538249,0.4933231901503717,0.06283508365185138,0,0.8288004687302972,0.7163696510102633,0.1420745689007605,0,0.6760252338994296,0.04436463594946021,-0.2119983555245136,0,-0.01106892154560176,808.6813186813187,790.952380952381,892.0879120879121,791.7582417582418,815.5311355311355,-0.091187,0.078552,0.996277,-0.254211,-3.334656,-0.740204,655970.695971,104286446.886447,72814358.974359,63.411133,1,2,1,1,2,80.000000
2025-05-02 15:36:52.345,,,,,,,,,,,,,,,,,,,,,,,,,,,,,,,,,,,,,,,,,,/muse/elements/blink
2025-05-02 15:36:53.014,0.5145569654215033,0.665148770145678,0,0.9521444669627562,0.5647921121265471,0.1145829796075669,0,1.230853162538249,0.7221916760297576,0.5391099872388012,0,0.8288004687302972,0.7071454290491501,0.05527383462034579,0,0.6760252338994296,0.2135041737027221,-0.1754759454691542,0,-0.01106892154560176,748.6446886446887,801.8315018315019,728.4981684981685,803.8461538461539,632.6007326007326,-0.081177,0.072632,0.995178,0.358887,-1.353302,0.201874,660000.000000,104940000.000000,73567032.967033,63.432659,1,1,1,1,1,80.000000
2025-05-02 15:36:54.014,0.7713690912160912,0.6522884807829803,0,0.4812862278188762,0.4526918196340324,0.1187060544781457,0,0.4472199115578555,0.5294828710692687,0.5886601635691133,0,0.3437331884621234,0.6680167998012276,0.01908508784151217,0,0.8076196407412209,0.05439872861943389,-0.2349043888501787,0,0.1380997403012229,752.2710622710623,788.1318681318681,810.2930402930403,810.6959706959707,515.3479853479854,-0.074524,0.072021,1.003052,0.441132,-1.398163,0.530853,660805.860806,105887692.307692,73975604.395604,62.235523,1,1,1,1,1,80.000000
2025-05-02 15:36:55.009,0.4832597436606722,0.5326716460487168,0,0.5287801418856671,0.3826800332002435,-0.03367679480994202,0,0.4195497938979014,0.6392288893085526,0.475040504833157,0,0.6693518753917344,0.5283488467330534,0.1758886326277764,0,0.5933360095373389,0.1013410027366396,-0.1799362155999448,0,0.1075581013750207,865.4945054945056,809.0842490842491,881.2087912087912,841.7216117216118,627.7655677655678,-0.075562,0.078186,1.001465,0.545807,-1.801910,-0.343933,663223.443223,106691135.531136,74190769.230769,60.940865,1,1,1,1,1,80.000000
2025-05-02 15:36:56.009,0.3070628776951632,0.3733037247029444,0,0.5921950119993777,0.3325865493355575,-0.03350879746283419,0,0.2841679764518291,0.660029517630894,0.07852136861602442,0,0.6554655478190958,0.6084675950088902,0.1794259774324738,0,0.5131810000738969,0.1753920312918973,-0.1323722495797661,0,0.03430118395653173,735.3479853479854,772.8205128205128,745.4212454212454,786.5201465201466,663.2234432234433,-0.076355,0.076599,1.000427,0.403748,-2.198181,0.299072,664835.164835,106807179.487179,74202857.142857,60.235363,1,1,1,1,1,80.000000
2025-05-02 15:36:56.363,,,,,,,,,,,,,,,,,,,,,,,,,,,,,,,,,,,,,,,,,,/muse/elements/blink
2025-05-02 15:36:57.009,0.5209763539586597,0.6254720033102423,0,0.6485349726324169,0.3363728700225326,0.09339553956915346,0,0.2000536897006108,0.5642059555567969,0.3474848677481471,0,0.3227317710018005,0.6524333280011413,0.1667353246504075,0,0.652811765887106,-0.007936819510998451,-0.309198708058364,0,-0.1402182091102685,754.2857142857143,804.2490842490843,838.901098901099,801.4285714285714,459.7435897435898,-0.080322,0.077148,0.999329,0.284119,-1.839294,0.485992,663223.443223,106177802.197802,73930476.190476,59.747139,1,1,1,4,1,80.000000
2025-05-02 15:36:58.009,0.5199983375510847,0.6208309375757085,0,0.4840737349928938,0.5873804618050572,0.1780251935935004,0,0.1989608950000261,0.7212783985793838,0.4750912369689183,0,0.1204823423570885,0.4502967367680205,0.1685375547238676,0,0.706652052934635,0.1400121817380688,-0.241450855101545,0,-0.2012503279357832,817.5457875457876,799.0109890109891,855.4212454212454,791.7582417582418,854.6153846153846,-0.087097,0.074219,0.999634,0.485992,-1.390686,0.097198,660805.860806,105488791.208791,73828937.728938,59.912506,1,1,1,1,1,80.000000
2025-05-02 15:36:59.013,0.2065459128021347,0.3564920055441078,0,0.6046233979386693,0.4074713754503138,0.238188341341266,0,0.5697331796895341,0.7886272455415891,0.4640986993337329,0,0.6413243633773643,0.5948524288148203,0.2529877504344244,0,0.6552440607193931,0.1826419907550235,-0.1544068339631423,0,-0.0767282302840661,653.1501831501831,787.7289377289378,714.3956043956044,717.2161172161173,806.2637362637363,-0.083069,0.072815,0.997437,0.560760,-1.345825,0.381317,660000.000000,105147912.087912,74094065.934066,60.653130,1,1,1,2,1,80.000000
2025-05-02 15:36:59.233,,,,,,,,,,,,,,,,,,,,,,,,,,,,,,,,,,,,,,,,,,/muse/elements/blink
2025-05-02 15:37:00.009,-0.01636697090496937,0.5103333754118593,0,0.6271317712690075,0.06244134431881957,0.3030242041194873,0,0.4303820306970025,0.5957397028009628,0.4159941231509465,0,0.52339092669885,0.665230523863642,0.2488957812234109,0,0.7813683905066356,0.2479599177493018,-0.04053885120783771,0,-0.08875342581450217,749.8534798534798,781.6849816849817,836.4835164835165,784.9084249084249,577.8021978021978,-0.077393,0.080872,1.001953,0.590668,-1.353302,-0.373840,662417.582418,105230915.750916,74428498.168498,61.009460,1,1,1,1,1,80.000000
2025-05-02 15:37:01.009,0.6256836392323324,0.4623982381702669,0,-0.0254212326486077,0.7312602655141212,0.3103649608956823,0,0.3935705906727481,0.4254745378178109,0.3027955332707989,0,0.6211655560480809,0.6060444068661395,0.2800173871361512,0,0.4832030905123074,0.1684907221273302,-0.1471878230206912,0,0.001981912161721164,858.6446886446887,802.6373626373627,750.2564102564103,816.7399267399268,1082.271062271062,-0.075928,0.080566,1.000793,0.082245,-1.413116,-0.530853,664029.304029,105456556.776557,74693626.373626,61.648182,1,1,1,4,1,80.000000
2025-05-02 15:37:02.008,0.6392468268950919,0.5331627813092271,0,0.280420566405738,0.5185444374742838,0.1490472183971938,0,0.5829312567063467,0.6105521678851644,0.2580148493966343,0,0.7704226344338665,0.5472039478177357,0.2357419826867967,0,0.473556092420535,0.1826639477437207,-0.04947549420053875,0,-0.02384584759542684,845.3479853479854,796.996336996337,809.8901098901099,890.0732600732601,675.7142857142858,-0.075378,0.077026,1.000061,0.052338,-1.390686,-0.583191,661611.721612,105643516.483516,74704102.564103,62.238071,1,1,1,1,1,80.000000
2025-05-02 15:37:02.095,,,,,,,,,,,,,,,,,,,,,,,,,,,,,,,,,,,,,,,,,,/muse/elements/blink
2025-05-02 15:37:03.008,0.3215408605693416,0.3981287949118829,0,0.4671266418891476,0.3610827832270153,0.2643171577010996,0,0.8062498384112898,0.5420427492973428,0.2944467823285015,0,0.4990180130694816,0.601503114915067,0.2200106457212241,0,0.4094044855537992,0.1333709668588244,-0.06812425299113177,0,-0.009661719460319056,761.1355311355312,772.4175824175825,845.7509157509157,793.7728937728938,554.8351648351648,-0.072510,0.077637,0.999023,0.702820,-1.480408,0.687866,661611.721612,105688644.688645,74916043.956044,62.548885,1,1,1,1,1,80.000000
2025-05-02 15:37:04.009,0.1034835402789357,0.4952980050263391,0,0.6935230921235849,0.3090295516971646,0.02754283453230327,0,0.3467896343687623,0.6110950807228929,0.3293510207721642,0,0.5375440938159104,0.5183882159614063,0.2245320874418831,0,0.4354975262256346,0.05634809409713777,-0.152889245064909,0,-0.3325672704484638,832.4542124542124,789.7435897435897,852.1978021978023,789.3406593406594,718.8278388278388,-0.081909,0.078003,1.000854,0.785065,-1.203766,1.016846,662417.582418,105527472.527473,74966813.186813,62.549175,1,1,1,1,1,80.000000
2025-05-02 15:37:04.620,,,,,,,,,,,,,,,,,,,,,,,,,,,,,,,,,,,,,,,,,,/muse/elements/blink
2025-05-02 15:37:05.014,0.2392397183202979,0.2857203653277319,0,0.458002402240874,0.2822393663563815,0.1652597327704142,0,0.2287575101241691,0.6346411591092864,0.3630398048902747,0,0.5073227101557515,0.6347557125088402,0.208266082528355,0,0.527180862867606,0.03794983090515665,-0.05510560707592105,0,-0.2521520681400619,742.1978021978023,786.9230769230769,735.3479853479854,799.0109890109891,644.2857142857143,-0.077759,0.080566,0.997498,0.351410,-1.330872,-0.082245,660000.000000,105245421.245421,74862857.142857,62.812210,1,1,1,1,1,80.000000
2025-05-02 15:37:06.008,0.4491621641522651,0.3837138042841838,0,0.1008743544265305,0.1518123581623603,0.1586586584531651,0,0.1885575931877946,0.3238948210902159,0.1781259483002614,0,0.2763753360450894,0.6803824019437626,0.05607172441565517,0,0.5838934614453174,0.04186293882460862,-0.2454852514304035,0,-0.1256825931675875,756.7032967032967,790.952380952381,877.1794871794872,796.5934065934066,648.3150183150183,-0.074890,0.080688,1.000793,0.523376,-1.196289,-0.590668,656776.556777,104901318.681319,74915238.095238,62.949863,1,1,1,1,1,80.000000
2025-05-02 15:37:07.009,0.4451668676530421,0.2977759008237265,0,0.04938053323062091,0.2186492826641678,-0.08798100469680613,0,0.003280453667419738,0.6189143431613796,0.3507566360520053,0,0.3072257674502122,0.3719223020618723,0.06495203388242712,0,0.4914589005535914,0.1216352287003336,-0.263208305224049,0,-0.1376970164742179,855.4212454212454,780.8791208791209,805.8608058608058,809.4871794871796,641.0622710622711,-0.074768,0.083374,1.000000,0.800018,-1.809387,0.433655,660805.860806,104993992.673993,75100586.080586,62.228249,1,1,1,1,1,80.000000
2025-05-02 15:37:08.013,0.3794583775101804,0.2558622218879969,0,0.02799309273951565,0.1764666550714016,0.07307568007656952,0,0.1026549518789624,0.7434376922931584,0.3647098253123285,0,0.4050788891806265,0.556688699952419,0.1978594999855099,0,0.5143057878031385,0.04596818335783258,-0.1547750374209314,0,-0.09049770752177422,734.9450549450549,786.9230769230769,707.1428571428571,798.2051282051282,741.7948717948718,-0.076721,0.081177,0.997864,0.358887,-1.398163,-0.336456,663223.443223,105066520.146520,75242417.582418,61.198521,1,1,1,4,1,80.000000
2025-05-02 15:37:08.365,,,,,,,,,,,,,,,,,,,,,,,,,,,,,,,,,,,,,,,,,,/muse/elements/blink
2025-05-02 15:37:09.008,0.5958482578687281,0.6337252878101124,0,0.4469567841163385,0.1862593085018184,0.1071358475178524,0,0.3303867132035263,0.5302914499496987,0.1825127154010064,0,0.404692170908595,0.7199057669811323,0.1278578205132949,0,0.4955630225021619,-0.02737873618662111,-0.1367931242688978,0,-0.196979048313155,763.1501831501831,783.2967032967033,915.0549450549451,805.4578754578755,759.5238095238095,-0.075989,0.084473,1.000000,0.635529,-1.450500,0.560760,665641.025641,105165641.025641,75327838.827839,60.370960,1,1,1,1,1,80.000000
2025-05-02 15:37:10.016,0.5614898721268506,0.5161902952120193,0,0.5355264434683699,0.05474920488779023,0.03763714600487652,0,0.3614752749424406,0.408813394400913,0.2641509436760393,0,0.3848935053765035,0.7487398675005695,0.09406910550628904,0,0.4372019355878961,0.02651848186658698,-0.1865215894377749,0,-0.1693830197978609,859.047619047619,766.7765567765568,869.1208791208792,826.007326007326,788.5347985347986,-0.071228,0.083252,1.001404,1.016846,-1.779480,0.657959,668864.468864,105178534.798535,75364102.564103,59.656879,1,1,1,4,1,80.000000
2025-05-02 15:37:10.092,,,,,,,,,,,,,,,,,,,,,,,,,,,,,,,,,,,,,,,,,,/muse/elements/blink
2025-05-02 15:37:11.019,0.5614898721268506,0.6979104059597807,0,0.5355264434683699,0.05474920488779023,0.2200249947978449,0,0.3614752749424406,0.408813394400913,0.4068220348034886,0,0.3848935053765035,0.7487398675005695,0.1532825145469924,0,0.4372019355878961,0.02651848186658698,-0.1873774590445682,0,-0.1693830197978609,730.9157509157509,786.1172161172161,803.040293040293,792.967032967033,608.8278388278388,-0.070007,0.094788,0.988159,0.770111,-0.979462,-0.373840,673699.633700,105282490.842491,75549450.549451,59.074612,1,2,1,2,2,80.000000
2025-05-02 15:37:12.008,-0.3237078257254057,0.4531076153590949,0,0.3474613232104339,0.05427780218740777,0.07013806347960477,0,0.1289881296282135,0.6095290822502156,0.2855993727557407,0,0.3905898289504228,0.4313420897392938,0.07809241358597821,0,0.406093934778275,-0.1514140745705231,-0.1560554779693173,0,-0.1986077312107035,761.5384615384615,785.7142857142858,931.978021978022,808.2783882783883,558.4615384615385,-0.078247,0.096802,0.995667,0.254211,-1.435547,0.560760,673699.633700,105375970.695971,75572820.512821,58.803574,1,1,1,1,1,80.000000
2025-05-02 15:37:12.732,,,,,,,,,,,,,,,,,,,,,,,,,,,,,,,,,,,,,,,,,,/muse/elements/blink
2025-05-02 15:37:13.009,0.1402624517731111,0.05931186885931417,0,0.336189183214178,0.1430345944332526,0.1488974297072887,0,0.4658082176025118,0.6315651061989548,0.2993087207900871,0,0.468666937534276,0.6957621445587742,0.131421326336252,0,0.443205813062465,-0.09071634856045806,-0.03158769858110705,0,-0.2207037379303674,861.0622710622711,790.952380952381,918.2783882783883,810.6959706959707,738.974358974359,-0.074097,0.099487,1.005920,0.209351,-1.525269,-1.054230,672893.772894,104944835.164835,75425347.985348,60.363167,1,1,1,2,1,80.000000
2025-05-02 15:37:14.009,0.4415293937079461,0.1219333788247216,0,0.3303921434028776,0.3629632344934168,0.1777887108650743,0,0.6458178159396974,0.4267437200422667,0.3631081131043495,0,0.4540291498423009,0.8800884948523872,0.2287817431466579,0,0.4544675492228238,0.02820135824451398,-0.07980410113044788,0,-0.1900470812342818,731.7216117216118,792.1611721611722,871.941391941392,797.8021978021978,626.1538461538462,-0.075073,0.086731,1.002747,0.157013,-1.211243,-0.366364,668864.468864,104678095.238095,75458388.278388,64.091400,1,1,1,1,1,80.000000
2025-05-02 15:37:15.008,-0.08593414923229696,0.04002650880271983,0,0.8610745767758409,0.3249128532713688,0.1170268051460621,0,0.9109849886086957,0.4045477709053272,0.05731816033555696,0,0.9661002453234827,0.3386913009319955,0.2059739496326444,0,0.3678345199908349,-0.02194023599549249,-0.2295296970031892,0,0.1242697656192196,760.3296703296703,784.5054945054945,1203.150183150183,788.9377289377289,717.2161172161173,-0.066772,0.091125,0.998535,0.515900,-1.353302,0.044861,668864.468864,104989963.369963,75825054.945055,66.689934,1,1,1,2,1,80.000000
2025-05-02 15:37:16.017,-0.05827122333328862,0.1975278930600364,0,0.5699868191417545,0.03232775849185342,0.03888435623033369,0,0.6267577483755776,0.4226302900639479,0.07555048058606062,0,0.8591843031526517,0.4270579442296799,0.1335419930637446,0,0.4210277763023676,0.147344656235698,0.01781002035530923,0,0.0739625631455961,825.2014652014652,789.3406593406594,784.9084249084249,811.0989010989011,1097.179487179487,-0.070251,0.090820,0.997192,0.157013,-0.971985,-0.523376,670476.190476,105234139.194139,75780732.600733,66.689934,1,1,1,2,1,80.000000
2025-05-02 15:37:17.010,0.1801998772689377,0.1631441410533056,0,0.7323774029856722,0.4770306309023714,0.06886186143185509,0,0.3393239231107584,0.4881339285296364,0.213669008550737,0,0.5803116276112932,0.4234738022072776,0.09473526615448406,0,0.4711671163167294,0.1242350336286711,-0.09231230402212312,0,0.03132288543527566,737.7655677655678,804.6520146520147,856.2271062271062,784.1025641025641,605.2014652014652,-0.080322,0.095581,1.001831,1.271057,-0.538330,0.276642,671282.051282,105698315.018315,75725128.205128,66.689934,1,1,1,2,1,80.000000
2025-05-02 15:37:17.684,,,,,,,,,,,,,,,,,,,,,,,,,,,,,,,,,,,,,,,,,,/muse/elements/blink
2025-05-02 15:37:18.008,0.5624831528638616,0.5185347673531413,0,0.8461580924989563,0.5398622727523773,0.1600467096468703,0,0.2817442174029292,0.5689892182482712,0.2519968041247582,0,0.607871111826129,0.3539651085694151,0.1386413070977789,0,0.4060331154193317,0.02510648366973391,-0.03619694458529184,0,-0.01410511911638081,780.0732600732601,788.5347985347986,942.4542124542124,802.2344322344322,857.4358974358975,-0.075012,0.092041,0.997559,1.390686,-1.121521,0.164490,670476.190476,105483956.043956,75516410.256410,66.689934,1,1,1,1,1,80.000000
2025-05-02 15:37:19.014,0.8078241986862207,0.1897353674261286,0,0.8439290072828087,0.5260778461668988,-0.03047002705931495,0,0.2962032789861661,0.3226138281150246,0.3765449680463895,0,0.3335494431705348,0.3063845089158705,0.1016439722650273,0,0.3705026465008567,-0.02629718242835481,-0.1082810621918293,0,-0.005267249361245232,797.8021978021978,791.7582417582418,862.2710622710623,788.5347985347986,773.6263736263736,-0.075256,0.095520,1.004944,1.039276,-1.293488,0.314026,670476.190476,105229304.029304,75388278.388278,66.689934,1,1,1,2,1,80.000000
2025-05-02 15:37:20.015,0.3040562874100692,-0.1457884988205012,0,0.3643779286616196,0.3230426256548887,0.04026891856613711,0,0.2201387844594911,0.6651769840895421,0.1024202164504327,0,0.6721004357858359,0.494208964293017,-0.06523321926839933,0,0.5938128999708939,0.09176332867600151,-0.07085779078295856,0,0.1535722570805816,738.5714285714286,793.7728937728938,779.2673992673992,785.7142857142858,768.3882783882784,-0.076111,0.099426,1.002869,0.979462,-0.747681,0.358887,672893.772894,105434798.534799,75397948.717949,63.871769,1,1,1,2,1,80.000000
2025-05-02 15:37:21.008,0.6340870395694436,0.08126106017481147,0,0.5371393843522031,0.1399775989744304,-0.2538282113288921,0,0.3745830398323803,0.6390941589940256,-0.0214664958027335,0,0.6716343253913771,0.3700445029784358,0.1182843641169196,0,0.4408413154615325,0.01739674743726487,-0.20105322868061,0,0.1451617200049681,768.3882783882784,771.6117216117216,1048.827838827839,792.967032967033,598.7545787545788,-0.074707,0.098022,1.003967,0.530853,-1.166382,-0.194397,676923.076923,105898974.358974,75539780.219780,62.272873,1,1,1,1,1,80.000000
2025-05-02 15:37:22.014,0.3979344108596155,0.4700135803329262,0,0.4345667474115246,0.3669840573659846,-0.04953204608538115,0,0.2871548280504197,0.6272011378873843,0.03023306074978925,0,0.8862564920150529,0.3925841242409829,0.2342655305720258,0,0.4427989431550912,0.02345557332622639,-0.2107971211002042,0,0.1567721829854259,799.0109890109891,796.1904761904763,930.3663003663004,795.3846153846154,959.7802197802198,-0.073303,0.096191,0.995056,1.091614,-0.657959,0.269165,678534.798535,105824029.304029,75511575.091575,60.307587,1,1,1,2,1,80.000000
2025-05-02 15:37:22.473,,,,,,,,,,,,,,,,,,,,,,,,,,,,,,,,,,,,,,,,,,/muse/elements/blink
2025-05-02 15:37:23.017,0.1375791101054177,0.6425456355231497,0,0.3787784556362409,0.2972258118447942,-0.06612770795308578,0,-0.1745995435754197,0.4610962911855794,0.2373716431640077,0,0.6847666501534773,0.4019994342936679,0.2283095437002276,0,0.4383441557622231,0.1047465275063914,-0.1052586705407122,0,0.0742992746352981,737.7655677655678,794.981684981685,808.6813186813187,786.9230769230769,676.1172161172161,-0.082397,0.102966,0.997986,0.979462,-2.041168,0.897217,678534.798535,105443663.003663,75284322.344322,59.615067,1,1,1,2,1,80.000000
2025-05-02 15:37:24.008,0.07818787777343743,0.1283782988746857,0,0.3771045971883783,0.2048475697312062,-0.03406667330803051,0,-0.2871229337138553,0.07587803639809272,0.258147084347676,0,0.13868184159742,0.4282137560878918,-0.006193116640342685,0,0.3873516952832487,0.178306428329058,-0.1073075726753704,0,-0.03251863178257362,778.0586080586081,798.2051282051282,948.901098901099,788.1318681318681,632.1978021978022,-0.081543,0.095642,0.997009,0.231781,-2.108459,-0.127106,674505.494505,104850549.450549,75153772.893773,61.594143,1,1,1,1,1,80.000000
2025-05-02 15:37:25.008,0.5469938163975928,0.4238447509153843,0,1.066361079100187,0.5737225325140461,0.07643384512133397,0,0.5933009388445748,0.8527897102007728,0.1126030700866161,0,0.6410778612439162,0.4902624400890013,0.1972918094410481,0,0.4695160226460515,0.159985904591104,-0.1083144869828536,0,0.009413345714041696,842.5274725274726,783.6996336996338,776.0439560439561,792.1611721611722,774.8351648351648,-0.072449,0.097656,0.998718,0.702820,-1.929016,0.082245,676117.216117,104648278.388278,75254505.494505,63.910049,1,1,1,1,1,80.000000
2025-05-02 15:37:25.436,,,,,,,,,,,,,,,,,,,,,,,,,,,,,,,,,,,,,,,,,,/muse/elements/blink
2025-05-02 15:37:26.008,0.4730561157618016,0.7325150745291498,0,0.7625647493866198,0.426059312684049,-0.01483841613901462,0,0.5123781258214393,0.6779475053864733,0.1272199172231073,0,0.2571010461340955,0.5821770712486088,0.2188562152440933,0,0.4981550214834953,0.0783889658850907,-0.1609134435559015,0,0.01020206142707419,754.2857142857143,677.3260073260074,774.8351648351648,797.3992673992674,722.0512820512821,-0.073914,0.097473,1.000793,0.792542,-1.884155,-0.725250,676923.076923,105041538.461538,75507545.787546,64.653046,1,1,1,1,1,80.000000
2025-05-02 15:37:27.008,0.5248314414806864,0.6327318029588277,0,0.6233951011787051,0.6028520952505464,-0.06957158265806587,0,0.470881377842601,0.5374688816664756,0.1066904834988061,0,0.1571102409319549,0.5615607949952616,0.0564915971766146,0,0.460615637334419,-0.01362799607852269,-0.09920632666495691,0,-0.0542085632742058,773.2234432234433,781.6849816849817,1019.010989010989,786.5201465201466,857.4358974358975,-0.073364,0.096802,0.999451,0.672913,-1.786957,-0.822449,676923.076923,105559706.959707,75636483.516484,64.717194,1,1,1,1,1,80.000000
2025-05-02 15:37:27.780,,,,,,,,,,,,,,,,,,,,,,,,,,,,,,,,,,,,,,,,,,/muse/elements/blink
2025-05-02 15:37:28.008,0.5194235713796406,0.2283691096645475,0,0.6204497910778815,0.4249354859442685,-0.2218496119083206,0,0.6021107371892025,0.5904913975397785,0.2814368881176224,0,0.4173769535799714,0.4137434117175961,0.09717907171917012,0,0.5118343309742883,0.1065679032073118,-0.1998982203619893,0,-0.008968828159473681,858.2417582417582,801.8315018315019,809.4871794871796,821.978021978022,740.989010989011,-0.076050,0.096558,0.998962,1.001892,-1.315918,0.014954,675311.355311,105849816.849817,75597802.197802,61.974564,1,1,1,1,1,80.000000
2025-05-02 15:37:29.008,0.4145863181385521,0.256813233120962,0,0.3945627222586423,0.1992020250002106,-0.2116209521377433,0,0.4011277247338561,0.2222858041600672,0.3208730487200646,0,0.1803537024491159,0.2272805531842657,0.1012381559748059,0,0.6390393071698792,0.1740548907718342,-0.1337854575858705,0,-0.09330778510108151,742.1978021978023,785.3113553113553,728.901098901099,792.967032967033,628.1684981684982,-0.080139,0.104492,0.996887,0.351410,-1.293488,-0.119629,673699.633700,105898974.358974,75596996.336996,61.961227,1,1,1,1,1,80.000000
2025-05-02 15:37:30.008,0.331223490598016,0.30654291136143,0,0.2610833086605519,0.360251416528535,-0.01454443749753247,0,0.06593742965945248,0.4826299198575612,0.3019436500204581,0,0.5447649939521666,0.253400899772216,0.1226669262438613,0,0.4714741793599833,-0.06502302131700921,-0.1501624333328512,0,0.002048983056111882,768.7912087912088,790.5494505494506,921.5018315018315,791.7582417582418,1060.512820512821,-0.078796,0.102905,0.998291,0.373840,-2.198181,0.112152,674505.494505,105875604.395604,75554285.714286,63.627602,1,1,1,4,1,80.000000
2025-05-02 15:37:30.486,,,,,,,,,,,,,,,,,,,,,,,,,,,,,,,,,,,,,,,,,,/muse/elements/blink
2025-05-02 15:37:31.009,0.3950866768113013,0.1916455931208842,0,0.3841303912970954,0.7130602369273513,-0.01529037704036115,0,0.2466806790835065,0.4946718637119155,0.162581971667028,0,0.4644443082100249,0.3552188433934564,0.07785832511197521,0,0.4151217122647614,-0.1276549957827609,-0.2050399121718644,0,-0.1317658341599778,788.1318681318681,789.7435897435897,969.4505494505495,789.7435897435897,717.6190476190476,-0.085693,0.100037,0.998596,0.314026,-1.181335,0.396271,672893.772894,105284908.424908,75389084.249084,67.227615,1,1,1,2,1,80.000000
2025-05-02 15:37:31.937,,,,,,,,,,,,,,,,,,,,,,,,,,,,,,,,,,,,,,,,,,/muse/elements/blink
2025-05-02 15:37:32.008,0.5273667771638962,0.1849831183320473,0,0.4732136317774225,0.8217566696289427,-0.2001647082908264,0,0.4815182820675276,0.3518241150343228,0.1623697221399452,0,0.359431592423564,0.3839162645299966,0.1424943056181159,0,0.1566134920662701,-0.01635245420874219,-0.2039538123003031,0,-0.125599211949977,767.5824175824176,801.025641025641,781.6849816849817,821.1721611721612,598.3516483516484,-0.079590,0.106628,0.996765,0.441132,-1.637421,0.411224,672087.912088,104959340.659341,75443076.923077,71.868896,1,1,1,2,1,80.000000
2025-05-02 15:37:33.008,0.5273667771638962,0.2345063975373026,0,0.4732136317774225,0.8217566696289427,-0.01507187652892214,0,0.4815182820675276,0.3518241150343228,0.1585375825940041,0,0.359431592423564,0.3839162645299966,0.03996239549225645,0,0.1566134920662701,-0.01635245420874219,-0.1937471781683374,0,-0.125599211949977,777.6556776556777,798.6080586080586,1039.157509157509,779.2673992673992,733.3333333333334,-0.069580,0.101624,0.999390,0.007477,-1.188812,-1.757050,674505.494505,105600805.860806,75640512.820513,74.517838,1,1,1,2,1,80.000000
2025-05-02 15:37:34.013,0.4383717850192264,0.06291587824745939,0,0.8520982433518285,0.4948614180069201,-0.1105768027553256,0,0.2783035278403539,0.5980349282462626,0.243852778367885,0,0.5628373136375641,0.3522081327554464,0.0878017765283384,0,0.7170073148764753,0.04475985177599458,-0.09859931582307496,0,-0.00875123654099067,799.8168498168499,794.1758241758242,679.3406593406594,801.4285714285714,953.7362637362637,-0.075073,0.100464,0.998352,0.426178,-1.398163,0.014954,676117.216117,106069816.849817,75816996.336996,74.774811,1,1,1,2,1,80.000000
2025-05-02 15:37:34.559,,,,,,,,,,,,,,,,,,,,,,,,,,,,,,,,,,,,,,,,,,/muse/elements/blink
2025-05-02 15:37:35.014,0.1918510192074915,-0.0537999247854456,0,0.7557256713958963,0.3805201348345705,-0.198248821767399,0,0.4376877422782221,0.1842706260047982,0.1112678940050403,0,0.4694151963022893,0.2901398628311391,0.08341376799992913,0,0.7102068816113168,0.01735166750609309,-0.1218381605709693,0,-0.02902272518402213,745.0183150183151,793.7728937728938,924.7252747252747,790.952380952381,589.4871794871796,-0.078857,0.104370,0.996704,0.575714,-1.300964,0.239258,676923.076923,106096410.256410,75796849.816850,66.371109,1,1,1,2,1,80.000000
2025-05-02 15:37:35.972,,,,,,,,,,,,,,,,,,,,,,,,,,,,,,,,,,,,,,,,,,/muse/elements/blink
2025-05-02 15:37:36.008,-0.1269746431241719,0.002676559752369816,0,0.622694257098934,0.3840492126139506,-0.1834332849056795,0,0.5626530882152325,0.1821856287578986,-0.06290890048980871,0,0.3329868588834307,0.358698428087218,0.0343776465417055,0,0.6064295356671549,0.1064434744147015,-0.1560072305517137,0,-0.2393744461058691,866.7032967032967,795.3846153846154,1037.545787545788,866.3003663003664,755.8974358974359,-0.076416,0.102783,0.999695,0.657959,-2.115936,0.388794,680952.380952,105994871.794872,75659853.479853,65.143585,1,1,1,2,1,80.000000
2025-05-02 15:37:37.008,-0.1269746431241719,0.2811889748658505,0,0.622694257098934,0.3840492126139506,0.1638097777324806,0,0.5626530882152325,0.1821856287578986,0.2765447956751289,0,0.3329868588834307,0.358698428087218,-0.02814241875156086,0,0.6064295356671549,0.1064434744147015,-0.1102934796685734,0,-0.2393744461058691,808.2783882783883,785.3113553113553,805.4578754578755,806.6666666666667,1015.384615384615,-0.075867,0.101868,0.998230,0.052338,-1.241150,-1.226196,680952.380952,105305054.945055,75404395.604396,65.143585,1,2,1,2,2,80.000000
2025-05-02 15:37:38.008,0.4321639771053784,0.419088253028144,0,0.5076335629300185,0.4492125536683714,0.1568387576521887,0,0.6589212871910956,-0.03811787675946459,0.3293864836886808,0,0.5498933249208053,0.4929617880466183,0.04645289665965503,0,0.5482709466746951,0.06008770783731848,-0.2385508762924406,0,-0.1972053627965391,809.4871794871796,781.6849816849817,894.1025641025641,858.2417582417582,574.1758241758242,-0.078918,0.098816,0.998291,0.844879,-1.405640,0.732727,681758.241758,104984322.344322,75401978.021978,66.114990,1,1,1,2,1,80.000000
2025-05-02 15:37:38.032,,,,,,,,,,,,,,,,,,,,,,,,,,,,,,,,,,,,,,,,,,/muse/elements/blink
2025-05-02 15:37:39.007,0.3142166942224265,0.447970507080123,0,0.4420823206910554,0.2402785763002346,0.2951702388487812,0,0.4613248649208251,-0.1098581782233364,0.1612860567605768,0,0.5473971816447398,0.5555797966558209,0.2084419811099563,0,0.6663622679388552,0.06126217467471316,-0.2314168460532959,0,-0.1477771278002869,779.2673992673992,796.996336996337,874.7619047619048,787.3260073260074,993.6263736263736,-0.073486,0.098938,0.994080,0.665436,-1.674805,-0.314026,686593.406593,105106007.326007,75683223.443223,67.293411,1,1,1,2,1,80.000000
2025-05-02 15:37:40.008,0.5547270883874096,0.07641857113495876,0,0.5561487843608217,0.409337687336525,-0.1045235587538096,0,0.292132577414302,0.6450246698522225,0.08598429193202317,0,0.837614749345601,0.601870365326018,0.0805482960374727,0,0.547098068558206,-0.1097875186699837,-0.2300729452189563,0,-0.2425661418809808,852.1978021978023,801.025641025641,969.4505494505495,807.4725274725275,671.2820512820513,-0.082947,0.104126,0.999573,1.001892,-1.480408,1.652374,690622.710623,105642710.622711,75908864.468864,67.903008,1,1,1,2,1,80.000000
2025-05-02 15:37:41.008,0.4823624567721073,-0.04426437028343268,0,0.502937461599208,0.5154381035221096,-0.2251716683645782,0,0.3402031370099696,0.7016636582025567,0.1369203669373499,0,0.8169593423258603,0.5725513630808124,-0.05564549686611838,0,0.3525858790695643,-0.1284001673650041,-0.1918915213139848,0,-0.1018290177546793,737.7655677655678,784.9084249084249,677.7289377289377,801.025641025641,659.5970695970697,-0.075378,0.111267,0.997314,0.568237,-1.158905,-0.949554,695457.875458,106072234.432234,75991868.131868,67.917168,1,1,1,2,1,80.000000
2025-05-02 15:37:41.868,,,,,,,,,,,,,,,,,,,,,,,,,,,,,,,,,,,,,,,,,,/muse/elements/blink
2025-05-02 15:37:42.008,0.5069431322348934,-0.1238947789793267,0,0.457720755495365,0.6990716390229013,-0.24030323628192,0,0.5751312394456776,0.2649110260088024,-0.01291069877319653,0,0.3488218654178931,0.4277729328676901,-0.02907031534044734,0,0.1984486809233422,-0.3505477970282889,-0.2780845648586398,0,-0.0437571445910329,788.5347985347986,784.1025641025641,961.3919413919414,814.7252747252747,659.5970695970697,-0.075500,0.103943,0.996521,0.493469,-1.786957,0.276642,700293.040293,106243076.923077,75993479.853480,67.917168,1,1,1,2,1,80.000000
2025-05-02 15:37:42.402,,,,,,,,,,,,,,,,,,,,,,,,,,,,,,,,,,,,,,,,,,/muse/elements/blink
2025-05-02 15:37:42.765,,,,,,,,,,,,,,,,,,,,,,,,,,,,,,,,,,,,,,,,,,/muse/elements/blink
2025-05-02 15:37:43.008,0.4583294851796347,0.4093690267116586,0,0.5918911282380779,0.6301896470619789,0.1136059396575991,0,0.6998035630840896,0.0630913738295226,0.1682616901109801,0,0.2871421028009365,0.4622856963998748,0.0741558259390739,0,0.287050040418533,-0.335398465163249,-0.117780050401949,0,-0.02770655412435363,642.2710622710623,798.2051282051282,506.0805860805861,661.6117216117216,1239.41391941392,-0.057739,0.097900,1.006104,-0.979462,-4.972076,-1.906586,699487.179487,106197142.857143,75841978.021978,66.003563,1,1,1,2,1,80.000000
2025-05-02 15:37:43.191,,,,,,,,,,,,,,,,,,,,,,,,,,,,,,,,,,,,,,,,,,/muse/elements/blink
2025-05-02 15:37:44.008,0.4583294851796347,0.6310609358664639,0,0.5918911282380779,0.6301896470619789,0.2791237269832039,0,0.6998035630840896,0.0630913738295226,0.3219696250814096,0,0.2871421028009365,0.4622856963998748,0.206077157004542,0,0.287050040418533,-0.335398465163249,-0.219933901117642,0,-0.02770655412435363,741.7948717948718,790.5494505494506,589.0842490842491,795.3846153846154,562.4908424908425,0.012878,0.060242,1.005066,-0.104675,-2.691650,1.181335,690622.710623,106073846.153846,76057142.857143,65.558067,1,1,1,2,1,80.000000
2025-05-02 15:37:45.008,0.4583294851796347,0.4835431695552215,0,0.7560348709026548,0.6301896470619789,-0.02938388011783439,0,0.4565005296788396,0.0630913738295226,0.3339630194250715,0,0.5558603913263861,0.4622856963998748,0.07653376283136483,0,0.5974762699593477,-0.335398465163249,-0.3806956232410352,0,0.04587519380327511,788.5347985347986,786.1172161172161,978.7179487179487,804.2490842490843,922.7106227106227,0.003479,0.067871,1.003113,0.508423,-0.583191,-0.650482,684981.684982,105673333.333333,75810549.450549,67.625778,1,1,1,2,1,80.000000
2025-05-02 15:37:45.834,,,,,,,,,,,,,,,,,,,,,,,,,,,,,,,,,,,,,,,,,,/muse/elements/blink
2025-05-02 15:37:45.941,,,,,,,,,,,,,,,,,,,,,,,,,,,,,,,,,,,,,,,,,,/muse/elements/jaw_clench
2025-05-02 15:37:46.016,0.4583294851796347,0.2904003360745654,0,0.7045024719607695,0.6301896470619789,0.1121843374479147,0,0.4820217436839923,0.0630913738295226,0.1463668545984321,0,0.7131179369979825,0.4622856963998748,0.05090783128833318,0,0.6296854394883394,-0.335398465163249,-0.03312688030107098,0,-0.0253312416463006,792.5641025641025,763.5531135531136,1134.652014652015,819.96336996337,968.2417582417582,-0.007446,0.070740,1.003357,0.328979,-0.097198,-1.166382,657582.417582,105428351.648352,73949816.849817,72.580742,1,1,1,1,1,80.000000
2025-05-02 15:37:46.047,,,,,,,,,,,,,,,,,,,,,,,,,,,,,,,,,,,,,,,,,,/muse/elements/blink
2025-05-02 15:37:46.771,,,,,,,,,,,,,,,,,,,,,,,,,,,,,,,,,,,,,,,,,,/muse/elements/blink
2025-05-02 15:37:47.007,0.4583294851796347,0.2727880441462308,0,0.634227297051723,0.6301896470619789,-0.01065197631388775,0,0.5336717585174752,0.0630913738295226,-0.09856404435259473,0,0.6700900436037056,0.4622856963998748,0.03981454474386279,0,0.6601140058642192,-0.335398465163249,0.0702148157903443,0,-0.1776531427307222,783.6996336996338,793.3699633699634,830.4395604395604,763.5531135531136,573.7728937728938,-0.014709,0.068909,1.006531,0.358887,-2.459869,0.112152,662417.582418,105849010.989011,74139194.139194,77.426498,1,1,1,1,1,80.000000
2025-05-02 15:37:47.282,,,,,,,,,,,,,,,,,,,,,,,,,,,,,,,,,,,,,,,,,,/muse/elements/blink
2025-05-02 15:37:48.008,0.4583294851796347,0.5155370771178599,0,0.634227297051723,0.6301896470619789,-0.02439994553327511,0,0.5336717585174752,0.0630913738295226,0.008223954868500954,0,0.6700900436037056,0.4622856963998748,0.4552109477069643,0,0.6601140058642192,-0.335398465163249,0.7234940485815569,0,-0.1776531427307222,809.8901098901099,797.3992673992674,658.3882783882784,807.8754578754579,1233.772893772894,-0.021484,0.070312,0.998047,0.306549,-1.884155,-0.067291,680146.520147,106123003.663004,75289963.369963,77.957397,1,1,1,2,1,80.000000
2025-05-02 15:37:48.391,,,,,,,,,,,,,,,,,,,,,,,,,,,,,,,,,,,,,,,,,,/muse/elements/blink
2025-05-02 15:37:49.015,0.4583294851796347,0.06855044045387564,0,0.634227297051723,0.6301896470619789,-0.1360858995076918,0,0.5336717585174752,0.0630913738295226,-0.08975268266797039,0,0.6700900436037056,0.4622856963998748,-0.0117179884971688,0,0.6601140058642192,-0.335398465163249,-0.181943996748939,0,-0.1776531427307222,790.952380952381,786.5201465201466,736.5567765567765,791.7582417582418,933.5897435897436,-0.023926,0.067444,1.000854,0.620575,-1.188812,0.770111,672893.772894,105303443.223443,74958754.578755,75.048531,1,2,1,2,2,80.000000
2025-05-02 15:37:50.008,0.7825264012910054,0.1884359135371048,0,0.7572159662971009,0.5575159931710384,-0.05375975751689051,0,0.2695092100354553,0.5271795745200518,0.2381870391910822,0,0.4848506612157563,0.6390747100159551,0.05883077245225122,0,0.5078329191732318,0.07608637938659908,-0.1653404146737215,0,0.04177057434146417,735.3479853479854,794.981684981685,780.8791208791209,783.6996336996338,527.8388278388279,-0.030762,0.068298,0.999451,0.777588,-2.198181,0.127106,667252.747253,104362197.802198,74864468.864469,75.750214,1,1,1,2,1,80.000000
2025-05-02 15:37:50.701,,,,,,,,,,,,,,,,,,,,,,,,,,,,,,,,,,,,,,,,,,/muse/elements/blink
2025-05-02 15:37:51.008,0.9902657218781851,0.6327513208600977,0,0.6523475211332572,0.5005565980246375,0.002000357387114561,0,0.1657343561681825,0.5400758054784545,0.2601550407267144,0,0.4884076552835693,0.5287762908810655,0.09313058156231349,0,0.472417418834893,0.07202878368918444,-0.1653857745599069,0,0.0848222428264543,788.9377289377289,787.3260073260074,817.5457875457876,802.6373626373627,829.2307692307693,-0.028137,0.069580,1.004395,0.157013,-1.734619,-0.800018,664029.304029,104105128.205128,75167472.527473,75.736778,1,1,1,2,1,80.000000
2025-05-02 15:37:51.535,,,,,,,,,,,,,,,,,,,,,,,,,,,,,,,,,,,,,,,,,,/muse/elements/blink
2025-05-02 15:37:52.014,1.186242960352965,0.8173197406456002,0,0.5138118091480045,0.3980656026646767,0.409878946244571,0,0.02910743254183808,0.2127428347077237,0.5901570126095926,0,0.09983703792171057,0.2818208687363816,-0.02700603820639104,0,0.4338553954255642,0.06587041117425713,-0.09667258758938771,0,0.1239884652568495,774.8351648351648,784.9084249084249,778.0586080586081,771.2087912087912,659.5970695970697,-0.015320,0.071533,1.004089,0.568237,-1.405640,-0.142059,664835.164835,104714358.974359,75678388.278388,74.108139,1,1,1,2,1,80.000000
2025-05-02 15:37:52.238,,,,,,,,,,,,,,,,,,,,,,,,,,,,,,,,,,,,,,,,,,/muse/elements/blink
2025-05-02 15:37:53.014,1.186242960352965,0.6603957333284803,0,0.5138118091480045,0.3980656026646767,0.3898688725068097,0,0.02910743254183808,0.2127428347077237,0.5922921744808635,0,0.09983703792171057,0.2818208687363816,0.04917900463745289,0,0.4338553954255642,0.06587041117425713,-0.1721917795782085,0,0.1239884652568495,736.959706959707,781.2820512820513,862.6739926739926,792.5641025641025,573.3699633699634,-0.016846,0.075745,1.001892,0.680389,-1.457977,0.441132,669670.329670,105530695.970696,76057948.717949,71.598541,1,1,1,2,1,80.000000
2025-05-02 15:37:53.111,,,,,,,,,,,,,,,,,,,,,,,,,,,,,,,,,,,,,,,,,,/muse/elements/blink
2025-05-02 15:37:54.008,1.186242960352965,0.2973828242599583,0,0.5138118091480045,0.3980656026646767,0.1305465490947717,0,0.02910743254183808,0.2127428347077237,0.4842269846974261,0,0.09983703792171057,0.2818208687363816,0.1035177621249961,0,0.4338553954255642,0.06587041117425713,0.02205456619761592,0,0.1239884652568495,781.2820512820513,784.5054945054945,929.1575091575091,788.1318681318681,710.3663003663004,-0.014221,0.078430,1.013977,0.388794,-0.934601,-0.971985,671282.051282,106042417.582418,76243296.703297,69.682961,1,2,1,2,2,80.000000
2025-05-02 15:37:54.256,,,,,,,,,,,,,,,,,,,,,,,,,,,,,,,,,,,,,,,,,,/muse/elements/blink
2025-05-02 15:37:55.008,1.186242960352965,0.1588800098192987,0,0.5138118091480045,0.3980656026646767,0.1477837719771014,0,0.02910743254183808,0.2127428347077237,0.1555035222267277,0,0.09983703792171057,0.2818208687363816,0.1658799607590405,0,0.4338553954255642,0.06587041117425713,-0.02544613908199058,0,0.1239884652568495,852.6007326007326,789.7435897435897,899.3406593406594,805.8608058608058,867.1062271062272,-0.025757,0.075806,1.001770,0.598145,-1.472931,0.650482,670476.190476,106115750.915751,76026520.146520,69.812111,1,2,1,2,2,80.000000
2025-05-02 15:37:56.007,0.5425341466673308,0.210445658866577,0,0.1611061275475136,0.1166756031922753,0.1657941462203347,0,0.2829201239998053,0.05670807118842169,0.08365284020318907,0,0.3577831558324779,0.6446658882492865,0.160829018784416,0,0.367853765153747,0.2092644562075741,-0.1656637164948685,0,0.2249338410058499,639.4505494505495,797.8021978021978,957.7655677655678,679.7435897435897,524.2124542124542,-0.014709,0.071045,1.002380,-0.261688,-1.368256,-0.471039,666446.886447,105797435.897436,75755750.915751,72.197624,1,1,1,2,1,80.000000
2025-05-02 15:37:56.176,,,,,,,,,,,,,,,,,,,,,,,,,,,,,,,,,,,,,,,,,,/muse/elements/blink
2025-05-02 15:37:57.007,0.5425341466673308,0.2182943637119879,0,0.1130084967491188,0.1166756031922753,0.03959822622783401,0,0.3158264329129225,0.05670807118842169,0.2070933816864382,0,0.3409840810114584,0.6446658882492865,0.2193162068414916,0,0.3079401054278105,0.2092644562075741,-0.2365123346625246,0,0.2364479737051959,787.7289377289378,789.3406593406594,908.2051282051282,802.2344322344322,884.0293040293041,-0.017273,0.077759,1.000977,0.740204,-0.822449,-0.306549,663223.443223,105169670.329670,75647765.567766,75.133400,1,1,1,2,1,80.000000
2025-05-02 15:37:57.540,,,,,,,,,,,,,,,,,,,,,,,,,,,,,,,,,,,,,,,,,,/muse/elements/blink
2025-05-02 15:37:58.008,0.5448206707943092,-0.009616143236019335,0,0.0697601857001761,0.1620023443798194,-0.03431986004731778,0,0.309062894090997,0.04896235717767328,0.2439426511184334,0,0.3389589369214454,0.6470906256353842,0.2046254749509623,0,0.2143709103462907,0.2366800414466,-0.2025550410615197,0,0.2612309310683896,794.981684981685,786.9230769230769,722.4542124542124,796.996336996337,728.0952380952381,-0.014160,0.078613,1.001770,0.680389,-1.951447,0.239258,661611.721612,105292161.172161,75912893.772894,77.730713,1,1,1,2,1,80.000000
2025-05-02 15:37:58.946,,,,,,,,,,,,,,,,,,,,,,,,,,,,,,,,,,,,,,,,,,/muse/elements/blink
2025-05-02 15:37:59.008,0.5448206707943092,0.1800374549027636,0,0.0697601857001761,0.1620023443798194,0.006342251786977877,0,0.309062894090997,0.04896235717767328,0.1125141255610152,0,0.3389589369214454,0.6470906256353842,0.08917710574053828,0,0.2143709103462907,0.2366800414466,-0.1237606575835901,0,0.2612309310683896,753.4798534798535,792.967032967033,980.3296703296703,807.8754578754579,529.8534798534798,-0.006897,0.075439,1.005188,1.330872,-1.487885,-0.358887,658388.278388,105977948.717949,76219926.739927,79.239296,1,2,1,2,2,80.000000
2025-05-02 15:37:59.645,,,,,,,,,,,,,,,,,,,,,,,,,,,,,,,,,,,,,,,,,,/muse/elements/blink
2025-05-02 15:38:00.008,0.5448206707943092,0.6788734154573943,0,0.0697601857001761,0.1620023443798194,0.2050485987633987,0,0.309062894090997,0.04896235717767328,0.3740820746633432,0,0.3389589369214454,0.6470906256353842,0.2554053488428269,0,0.2143709103462907,0.2366800414466,-0.1483104823411863,0,0.2612309310683896,790.952380952381,784.5054945054945,794.5787545787546,815.934065934066,1087.509157509158,-0.005554,0.078918,0.996887,-0.179443,-0.209351,-0.942078,655164.835165,105985201.465201,76233626.373626,80.429024,1,2,1,2,2,80.000000
2025-05-02 15:38:00.772,,,,,,,,,,,,,,,,,,,,,,,,,,,,,,,,,,,,,,,,,,/muse/elements/blink
2025-05-02 15:38:01.007,0.5448206707943092,0.7883638924064308,0,0.0697601857001761,0.1620023443798194,0.05965504231352171,0,0.309062894090997,0.04896235717767328,0.3640838193144644,0,0.3389589369214454,0.6470906256353842,0.1995068886100281,0,0.2143709103462907,0.2366800414466,-0.262677759740922,0,0.2612309310683896,784.9084249084249,782.0879120879121,768.7912087912088,804.6520146520147,637.4358974358975,-0.013245,0.079224,1.004272,0.672913,-2.175751,0.553284,651135.531136,105824029.304029,76031355.311355,81.472260,1,2,1,2,2,80.000000
2025-05-02 15:38:02.008,0.5448206707943092,0.007470802023555156,0,0.0697601857001761,0.1620023443798194,-0.1354235291065338,0,0.309062894090997,0.04896235717767328,0.1667758703175511,0,0.3389589369214454,0.6470906256353842,-0.05344300182618893,0,0.2143709103462907,0.2366800414466,-0.2101790551063283,0,0.2612309310683896,747.4358974358975,793.7728937728938,998.8644688644689,798.2051282051282,544.7619047619048,-0.010254,0.080078,1.004456,0.433655,-2.325287,-0.373840,648717.948718,105652380.952381,76005567.765568,80.271538,1,2,1,2,2,80.000000
2025-05-02 15:38:03.008,0.2968756509738263,0.2036777930245105,0,0.3435807948472968,0.3896606417933841,0.1167095716191342,0,0.4100634144092529,0.3954032800207485,0.054392881347875,0,0.4931946606183533,0.3254844168511891,0.02759554036351454,0,0.3793021358872624,0.1522706796864097,-0.04276676609834915,0,0.07447696984035901,846.959706959707,793.3699633699634,597.5457875457876,855.0183150183151,1362.307692307692,0.002258,0.075867,1.002441,1.510315,-2.310333,0.284119,649523.809524,105359853.479853,76120000.000000,76.984833,1,1,1,2,1,80.000000
2025-05-02 15:38:03.115,,,,,,,,,,,,,,,,,,,,,,,,,,,,,,,,,,,,,,,,,,/muse/elements/blink
2025-05-02 15:38:04.008,0.4405575117770997,0.0180164691308584,0,0.3861346256603123,0.3692908418614462,-0.1449137463439645,0,0.2982512596631211,0.3902024466953153,0.1280007224146358,0,0.276686440588414,0.3333091072256778,0.01024926014728707,0,0.1802656796502845,0.2107959160857927,-0.1497356684247733,0,-0.1408574878373382,777.6556776556777,784.9084249084249,660.4029304029305,786.9230769230769,647.1062271062272,0.001404,0.074890,1.003235,-0.448608,-0.762634,-1.973877,648717.948718,104910183.150183,76233626.373626,75.305328,1,1,1,2,1,80.000000
2025-05-02 15:38:04.841,,,,,,,,,,,,,,,,,,,,,,,,,,,,,,,,,,,,,,,,,,/muse/elements/blink
2025-05-02 15:38:05.008,0.7040137614534566,0.2585132342689105,0,0.4659579703136693,0.5869498391580912,-0.05714992489374427,0,0.4405367455615046,0.4387956142624788,0.2743903704718562,0,0.4906411071513794,0.5489127596547366,0.1588866038573933,0,0.1493418925464822,0.1638787485999366,-0.1941893349281203,0,-0.1320353335851923,742.1978021978023,796.5934065934066,962.6007326007326,784.9084249084249,593.919413919414,-0.003601,0.076416,1.005859,1.121521,-1.360779,0.411224,652747.252747,105428351.648352,76632527.472527,75.773514,1,1,1,2,1,80.000000
2025-05-02 15:38:06.008,0.7652817058616392,0.2387863921732299,0,0.5182870926743129,0.4895776328753329,-0.1661862985342193,0,0.3754635687462284,0.416985848232353,0.3486553704379209,0,0.4556118448805532,0.5505948174938279,0.1432334686228627,0,0.1547405520774819,0.1976609519966473,-0.1449822450331711,0,-0.127551306027145,826.4102564102565,774.0293040293041,790.1465201465202,843.7362637362637,700.2930402930403,-0.004517,0.079102,1.010315,0.097198,-1.308441,-0.299072,656776.556777,106349450.549451,76942783.882784,76.179016,1,1,1,2,1,80.000000
2025-05-02 15:38:06.163,,,,,,,,,,,,,,,,,,,,,,,,,,,,,,,,,,,,,,,,,,/muse/elements/blink
2025-05-02 15:38:07.008,0.7652817058616392,0.7442489669367609,0,0.5182870926743129,0.4895776328753329,0.3885790950440405,0,0.3754635687462284,0.416985848232353,0.2900320741865384,0,0.4556118448805532,0.5505948174938279,0.06712601725373589,0,0.1547405520774819,0.1976609519966473,-0.04123480285679838,0,-0.127551306027145,749.8534798534798,769.1941391941392,749.8534798534798,761.941391941392,754.6886446886447,0.004333,0.077332,1.001770,0.007477,-1.899109,-1.039276,659194.139194,106762857.142857,76929890.109890,75.749947,1,1,1,2,1,80.000000
2025-05-02 15:38:07.375,,,,,,,,,,,,,,,,,,,,,,,,,,,,,,,,,,,,,,,,,,/muse/elements/blink
2025-05-02 15:38:08.008,0.7652817058616392,1.048159749646678,0,0.5182870926743129,0.4895776328753329,0.4582471944195901,0,0.3754635687462284,0.416985848232353,0.2360031832627409,0,0.4556118448805532,0.5505948174938279,0.1159213516804649,0,0.1547405520774819,0.1976609519966473,-0.1531973988946416,0,-0.127551306027145,839.7069597069598,782.4908424908425,918.6813186813187,811.9047619047619,718.021978021978,0.005859,0.076477,1.004211,0.897217,-1.293488,0.710297,657582.417582,106445347.985348,76691355.311355,77.109543,1,2,1,2,2,80.000000
2025-05-02 15:38:08.264,,,,,,,,,,,,,,,,,,,,,,,,,,,,,,,,,,,,,,,,,,/muse/elements/blink
2025-05-02 15:38:09.017,0.7652817058616392,0.9251036840341055,0,0.5182870926743129,0.4895776328753329,0.3440335790845844,0,0.3754635687462284,0.416985848232353,0.2940552627688756,0,0.4556118448805532,0.5505948174938279,0.08222886545705428,0,0.1547405520774819,0.1976609519966473,-0.2696154027569584,0,-0.127551306027145,860.2564102564103,791.3553113553114,807.0695970695971,796.1904761904763,718.8278388278388,0.001343,0.077026,0.997131,0.082245,-1.450500,-0.112152,660805.860806,106271282.051282,76477802.197802,79.595398,1,2,1,2,2,80.000000
2025-05-02 15:38:09.496,,,,,,,,,,,,,,,,,,,,,,,,,,,,,,,,,,,,,,,,,,/muse/elements/blink
2025-05-02 15:38:10.017,0.7652817058616392,0.366853587974799,0,0.5182870926743129,0.4895776328753329,0.1053355629938843,0,0.3754635687462284,0.416985848232353,0.3785383771524635,0,0.4556118448805532,0.5505948174938279,0.1414182102574962,0,0.1547405520774819,0.1976609519966473,-0.3513082477324149,0,-0.127551306027145,782.4908424908425,792.5641025641025,817.948717948718,790.5494505494506,608.8278388278388,-0.005066,0.080566,1.006531,0.710297,-2.138367,-0.164490,658388.278388,105580659.340659,76245714.285714,80.988976,1,2,1,2,2,80.000000
2025-05-02 15:38:10.708,,,,,,,,,,,,,,,,,,,,,,,,,,,,,,,,,,,,,,,,,,/muse/elements/blink
2025-05-02 15:38:11.008,0.7652817058616392,0.3290161765628229,0,0.5182870926743129,0.4895776328753329,0.2865553716977868,0,0.3754635687462284,0.416985848232353,0.3908993013156941,0,0.4556118448805532,0.5505948174938279,0.05989981285508061,0,0.1547405520774819,0.1976609519966473,-0.3107222802945782,0,-0.127551306027145,735.7509157509157,788.9377289377289,935.2014652014652,790.5494505494506,557.6556776556777,0.001282,0.081299,1.009277,0.986938,-1.315918,0.628052,661611.721612,105728131.868132,76620439.560440,83.134384,1,2,1,2,2,80.000000
2025-05-02 15:38:11.734,,,,,,,,,,,,,,,,,,,,,,,,,,,,,,,,,,,,,,,,,,/muse/elements/blink
2025-05-02 15:38:12.008,0.7652817058616392,0.3940392207847936,0,0.5182870926743129,0.4895776328753329,0.277281925909261,0,0.3754635687462284,0.416985848232353,0.3850818695745731,0,0.4556118448805532,0.5505948174938279,0.04543448158029553,0,0.1547405520774819,0.1976609519966473,-0.2142036450553769,0,-0.127551306027145,777.2527472527473,792.1611721611722,734.1391941391942,803.4432234432235,979.1208791208792,-0.008545,0.080017,0.999146,0.695343,-2.071075,0.882263,662417.582418,105710402.930403,76789670.329670,85.620644,1,2,1,2,2,80.000000
2025-05-02 15:38:12.859,,,,,,,,,,,,,,,,,,,,,,,,,,,,,,,,,,,,,,,,,,/muse/elements/blink
2025-05-02 15:38:13.008,0.7652817058616392,0.3098822239739391,0,0.5182870926743129,0.4895776328753329,-0.002477501906467781,0,0.3754635687462284,0.416985848232353,0.2148844238488924,0,0.4556118448805532,0.5505948174938279,0.1247269613441239,0,0.1547405520774819,0.1976609519966473,-0.2013821028364715,0,-0.127551306027145,855.8241758241759,794.5787545787546,892.4908424908425,808.2783882783883,623.3333333333334,0.005676,0.074524,0.996399,0.800018,-1.517792,-0.665436,664029.304029,106218901.098901,76979047.619048,87.003166,1,2,1,2,2,80.000000
2025-05-02 15:38:13.476,,,,,,,,,,,,,,,,,,,,,,,,,,,,,,,,,,,,,,,,,,/muse/elements/blink
2025-05-02 15:38:14.007,0.7652817058616392,0.2490706290206767,0,0.5182870926743129,0.4895776328753329,0.3934681903566705,0,0.3754635687462284,0.416985848232353,0.4020377826129369,0,0.4556118448805532,0.5505948174938279,0.04208661277445783,0,0.1547405520774819,0.1976609519966473,-0.3194601152861867,0,-0.127551306027145,708.3516483516484,770,767.985347985348,786.9230769230769,680.1465201465202,-0.005188,0.075623,0.998413,0.904694,-1.323395,1.592560,665641.025641,106173772.893773,76896043.956044,87.561546,1,2,1,2,2,80.000000
2025-05-02 15:38:14.370,,,,,,,,,,,,,,,,,,,,,,,,,,,,,,,,,,,,,,,,,,/muse/elements/blink
2025-05-02 15:38:14.606,,,,,,,,,,,,,,,,,,,,,,,,,,,,,,,,,,,,,,,,,,/muse/elements/blink
2025-05-02 15:38:15.008,0.7652817058616392,0.2513036395591147,0,0.5182870926743129,0.4895776328753329,0.6594236290434938,0,0.3754635687462284,0.416985848232353,0.4818414747952998,0,0.4556118448805532,0.5505948174938279,0.05481155615259234,0,0.1547405520774819,0.1976609519966473,-0.3339229285723622,0,-0.127551306027145,780.0732600732601,793.7728937728938,670.8791208791209,809.8901098901099,770,0.000610,0.075317,0.998718,0.336456,-1.203766,-0.119629,665641.025641,106264835.164835,76885567.765568,89.125740,1,2,1,2,2,80.000000
2025-05-02 15:38:16.014,0.8576203993838993,0.09118783069542803,0,0.3301244812554115,0.6037916822354839,0.3753535505429851,0,0.3766656297538303,0.2944871819904176,0.2333814235599384,0,0.4686561503076674,0.4776494249074292,0.174379668943684,0,0.5018154264825244,0.08264466581700849,-0.2002526285061017,0,-0.2330095310397494,797.3992673992674,790.1465201465202,759.5238095238095,801.8315018315019,664.4322344322344,-0.005127,0.078796,1.002441,0.657959,-1.203766,1.031799,663223.443223,105493626.373626,76510842.490842,89.019333,1,2,1,2,2,80.000000
2025-05-02 15:38:17.017,0.7239153816348505,0.1589442269131889,0,0.6089857771748479,0.3508377379352432,-0.07761504191126022,0,0.2714136376566599,0.3917260649541076,0.1885032403475303,0,0.6516919059689033,0.3423227115848262,0.1289025556008437,0,0.4594751532839039,-0.01925675766611624,-0.08975062223493198,0,-0.2759233324804252,737.3626373626374,787.7289377289378,807.8754578754579,784.9084249084249,731.3186813186813,-0.009521,0.082947,1.004272,0.336456,-1.368256,-0.418701,664029.304029,105139047.619048,76679267.399267,88.658836,1,1,1,2,1,80.000000
2025-05-02 15:38:18.007,0.7037642293233076,0.6145188687913777,0,0.6995000531675458,0.3386638760858134,0.1346002125393642,0,0.1577492990938528,0.3060902395284504,0.1163042902452722,0,0.5143530639792706,0.4031200390465127,0.1013323621794405,0,0.3594271169890148,0.06098993483074094,0.02825951074930593,0,-0.1258175171127425,772.4175824175825,788.9377289377289,664.8351648351648,800.6227106227107,948.0952380952381,-0.009216,0.080200,1.006470,1.278534,-1.876678,1.338348,664835.164835,105233333.333333,76940366.300366,88.485405,1,1,1,2,1,80.000000
2025-05-02 15:38:19.008,0.3007895159095132,0.07516411505314885,0,0.3208861237391712,0.2357670680218033,0.06783941540722763,0,0.105842169655741,0.02840530284046995,0.04884760532180777,0,0.1191810510893283,0.453061087885316,0.167251166637445,0,0.2777757418323665,0.2955236079498223,-0.08786446673728025,0,0.02407633329613056,857.032967032967,781.2820512820513,816.7399267399268,843.7362637362637,808.2783882783883,-0.002075,0.075317,0.998596,0.171967,-0.740204,-1.031799,660805.860806,104951282.051282,76888791.208791,85.969276,1,1,1,2,1,80.000000
2025-05-02 15:38:19.051,,,,,,,,,,,,,,,,,,,,,,,,,,,,,,,,,,,,,,,,,,/muse/elements/blink
2025-05-02 15:38:20.007,0.3337462221387047,0.1111877856357148,0,0.3955738809289545,0.1392762275258325,0.318973046872113,0,0.1466779584518358,-0.02853907639756996,-0.05063184510753962,0,0.1057154207015607,0.4682322670861898,0.09368510203294052,0,0.2276052309316949,0.326574994585967,-0.1027375566017142,0,0.03439553835420953,725.2747252747253,770,797.8021978021978,797.3992673992674,635.0183150183151,-0.013000,0.086426,1.004395,1.375732,-2.071075,-0.007477,662417.582418,105217216.117216,77024175.824176,82.807556,1,1,1,2,1,80.000000
2025-05-02 15:38:21.007,0.771650476900546,0.320895524021082,0,0.881144059638749,0.5564106810855131,0.1357209258930034,0,0.4133167348425642,0.343248031047941,0.04806289570085234,0,0.1990720480537692,0.6329410727892736,0.02128036001733463,0,0.4616075596392484,0.05872565941326605,-0.1965428757601362,0,-0.3620681954756533,779.2673992673992,796.5934065934066,771.6117216117216,809.4871794871796,811.9047619047619,-0.015198,0.082458,1.003479,0.186920,-0.553284,0.089722,664835.164835,105467032.967033,77130549.450549,80.586899,1,1,1,2,1,80.000000
2025-05-02 15:38:21.070,,,,,,,,,,,,,,,,,,,,,,,,,,,,,,,,,,,,,,,,,,/muse/elements/blink
2025-05-02 15:38:22.008,0.8396097007898313,0.3773311688031141,0,0.9038687653375649,0.6015440227380616,-0.1659825824068603,0,0.3505158613351724,0.2927342591342341,0.3217289434562402,0,0.01876098939764646,0.6022147048361141,-0.03865192044047009,0,0.4323780601399712,0.09557813289443065,-0.2896768322630598,0,-0.4022753195332056,804.6520146520147,791.3553113553114,904.1758241758242,786.1172161172161,605.2014652014652,-0.009399,0.088562,0.994690,0.710297,-2.160797,1.099091,668864.468864,105550842.490842,77033040.293040,78.020638,1,1,1,2,1,80.000000
2025-05-02 15:38:22.497,,,,,,,,,,,,,,,,,,,,,,,,,,,,,,,,,,,,,,,,,,/muse/elements/blink
2025-05-02 15:38:23.008,0.8396097007898313,0.233835103572134,0,0.9038687653375649,0.6015440227380616,0.301545361995294,0,0.3505158613351724,0.2927342591342341,0.3716423719324491,0,0.01876098939764646,0.6022147048361141,-0.1098697798726583,0,0.4323780601399712,0.09557813289443065,-0.2228088551581099,0,-0.4022753195332056,732.5274725274726,780.8791208791209,731.7216117216118,785.3113553113553,610.8424908424909,-0.009521,0.090759,0.997742,0.986938,-0.934601,1.308441,668864.468864,105060073.260073,76849304.029304,77.236832,1,1,1,2,1,80.000000
2025-05-02 15:38:24.008,0.8396097007898313,0.3099171155613183,0,0.9038687653375649,0.6015440227380616,0.2717247368334684,0,0.3505158613351724,0.2927342591342341,0.1758944929932265,0,0.01876098939764646,0.6022147048361141,-0.04106164637878336,0,0.4323780601399712,0.09557813289443065,-0.2685612602378332,0,-0.4022753195332056,663.6263736263736,803.8461538461539,538.3150183150183,703.1135531135532,604.7985347985348,-0.008118,0.089722,1.002625,-0.246735,-2.848663,-0.351410,671282.051282,105080219.780220,76811428.571429,76.729515,1,2,1,2,2,80.000000
2025-05-02 15:38:24.201,,,,,,,,,,,,,,,,,,,,,,,,,,,,,,,,,,,,,,,,,,/muse/elements/blink
2025-05-02 15:38:25.008,0.8396097007898313,0.3434613646727724,0,0.9038687653375649,0.6015440227380616,0.2373890893511333,0,0.3505158613351724,0.2927342591342341,0.3743218452761086,0,0.01876098939764646,0.6022147048361141,-0.01876482362233305,0,0.4323780601399712,0.09557813289443065,-0.2867882277759926,0,-0.4022753195332056,829.6336996336996,790.952380952381,983.5531135531136,806.2637362637363,638.6446886446887,0.023193,0.082214,1.005310,1.181335,-1.899109,1.375732,671282.051282,105415457.875458,77011282.051282,76.265022,1,2,1,2,2,80.000000
2025-05-02 15:38:25.329,,,,,,,,,,,,,,,,,,,,,,,,,,,,,,,,,,,,,,,,,,/muse/elements/blink
2025-05-02 15:38:26.008,0.8396097007898313,0.22788856734974,0,0.9038687653375649,0.6015440227380616,0.129104492201868,0,0.3505158613351724,0.2927342591342341,0.4067955428786262,0,0.01876098939764646,0.6022147048361141,0.007223915296142969,0,0.4323780601399712,0.09557813289443065,-0.2425137109770257,0,-0.4022753195332056,747.8388278388279,794.5787545787546,756.3003663003664,790.1465201465202,705.5311355311355,0.003845,0.085449,1.001709,1.181335,-1.652374,0.919647,673699.633700,105171282.051282,76994358.974359,77.177643,1,2,1,2,2,80.000000
2025-05-02 15:38:26.369,,,,,,,,,,,,,,,,,,,,,,,,,,,,,,,,,,,,,,,,,,/muse/elements/blink
2025-05-02 15:38:27.008,0.8396097007898313,0.2606027550450846,0,0.9038687653375649,0.6015440227380616,-0.01129804609914925,0,0.3505158613351724,0.2927342591342341,0.2372681776211107,0,0.01876098939764646,0.6022147048361141,0.02842555043810321,0,0.4323780601399712,0.09557813289443065,-0.2830951552069103,0,-0.4022753195332056,755.8974358974359,790.952380952381,642.2710622710623,801.025641025641,585.8608058608058,0.011536,0.086792,1.005920,0.306549,-1.547699,-0.366364,676117.216117,105274432.234432,77091868.131868,78.360771,1,2,1,2,2,80.000000
2025-05-02 15:38:27.477,,,,,,,,,,,,,,,,,,,,,,,,,,,,,,,,,,,,,,,,,,/muse/elements/blink
2025-05-02 15:38:28.008,0.8396097007898313,0.4539422838990903,0,0.9038687653375649,0.6015440227380616,0.02561303186073011,0,0.3505158613351724,0.2927342591342341,0.08205460323413608,0,0.01876098939764646,0.6022147048361141,0.03127696624856953,0,0.4323780601399712,0.09557813289443065,-0.1912252609355,0,-0.4022753195332056,628.974358974359,803.040293040293,820.3663003663004,635.0183150183151,683.3699633699634,0.002258,0.082336,0.999451,0.441132,-1.263580,-0.994415,676923.076923,105052820.512821,76954065.934066,79.673157,1,2,1,2,2,80.000000
2025-05-02 15:38:28.183,,,,,,,,,,,,,,,,,,,,,,,,,,,,,,,,,,,,,,,,,,/muse/elements/blink
2025-05-02 15:38:29.008,0.8396097007898313,1.07846436035798,0,0.9038687653375649,0.6015440227380616,0.2941747561753172,0,0.3505158613351724,0.2927342591342341,0.4415596171713898,0,0.01876098939764646,0.6022147048361141,-0.1297999590104483,0,0.4323780601399712,0.09557813289443065,-0.1428238494716335,0,-0.4022753195332056,748.2417582417582,781.2820512820513,863.4798534798535,792.1611721611722,733.7362637362637,-0.008850,0.087830,0.999817,1.099091,-1.577606,0.620575,680146.520147,104799780.219780,76971794.871795,81.694473,1,2,1,2,2,80.000000
2025-05-02 15:38:29.075,,,,,,,,,,,,,,,,,,,,,,,,,,,,,,,,,,,,,,,,,,/muse/elements/blink
2025-05-02 15:38:29.690,,,,,,,,,,,,,,,,,,,,,,,,,,,,,,,,,,,,,,,,,,/muse/elements/blink
2025-05-02 15:38:30.008,0.8396097007898313,1.091546043903811,0,0.9038687653375649,0.6015440227380616,0.4138122518986485,0,0.3505158613351724,0.2927342591342341,0.5272185282266905,0,0.01876098939764646,0.6022147048361141,0.01575897646222483,0,0.4323780601399712,0.09557813289443065,-0.2555517713586656,0,-0.4022753195332056,790.5494505494506,789.7435897435897,583.8461538461538,796.1904761904763,603.5897435897436,0.000732,0.087524,1.003601,0.269165,-1.435547,-0.336456,681758.241758,104847326.007326,77045934.065934,83.342316,1,2,1,2,2,80.000000
2025-05-02 15:38:31.016,0.8396097007898313,0.7141951342888695,0,0.9038687653375649,0.6015440227380616,0.4174962886169928,0,0.3505158613351724,0.2927342591342341,0.4686091457424726,0,0.01876098939764646,0.6022147048361141,-0.03340238124444174,0,0.4323780601399712,0.09557813289443065,-0.175125137493916,0,-0.4022753195332056,824.3956043956044,790.952380952381,911.8315018315019,814.3223443223443,575.3846153846154,-0.002502,0.089294,1.009338,0.725250,-2.071075,0.448608,682564.102564,105037509.157509,77036263.736264,81.900726,1,2,1,2,2,80.000000
2025-05-02 15:38:31.049,,,,,,,,,,,,,,,,,,,,,,,,,,,,,,,,,,,,,,,,,,/muse/elements/blink
2025-05-02 15:38:32.008,0.8396097007898313,0.3695525533204649,0,0.9038687653375649,0.6015440227380616,0.2185438146407908,0,0.3505158613351724,0.2927342591342341,0.6064582075720931,0,0.01876098939764646,0.6022147048361141,-0.01218821007320753,0,0.4323780601399712,0.09557813289443065,-0.1258864296882788,0,-0.4022753195332056,834.8717948717949,793.3699633699634,849.3772893772895,801.4285714285714,756.3003663003664,-0.005737,0.085938,1.006714,0.007477,-1.233673,-0.957031,681758.241758,104864249.084249,76883956.043956,79.635262,1,2,1,2,2,80.000000
2025-05-02 15:38:32.459,,,,,,,,,,,,,,,,,,,,,,,,,,,,,,,,,,,,,,,,,,/muse/elements/blink
2025-05-02 15:38:33.008,0.8396097007898313,0.5131010676956875,0,0.9038687653375649,0.6015440227380616,0.2373935432369132,0,0.3505158613351724,0.2927342591342341,0.5344587311129081,0,0.01876098939764646,0.6022147048361141,0.1038979116222512,0,0.4323780601399712,0.09557813289443065,-0.2856642819706983,0,-0.4022753195332056,667.6556776556777,792.5641025641025,786.5201465201466,697.0695970695971,814.3223443223443,-0.005432,0.087402,1.000854,0.971985,-1.457977,1.330872,680952.380952,104881172.161172,76883956.043956,78.702629,1,2,1,2,2,80.000000
2025-05-02 15:38:33.158,,,,,,,,,,,,,,,,,,,,,,,,,,,,,,,,,,,,,,,,,,/muse/elements/blink
2025-05-02 15:38:33.860,,,,,,,,,,,,,,,,,,,,,,,,,,,,,,,,,,,,,,,,,,/muse/elements/blink
2025-05-02 15:38:34.007,0.8396097007898313,0.4966099669916333,0,0.9038687653375649,0.6015440227380616,0.2937422413337193,0,0.3505158613351724,0.2927342591342341,0.3275419594884009,0,0.01876098939764646,0.6022147048361141,0.0608272331709846,0,0.4323780601399712,0.09557813289443065,-0.1579282919881553,0,-0.4022753195332056,805.0549450549451,788.9377289377289,914.6520146520147,792.5641025641025,560.4761904761905,-0.009155,0.084229,1.001648,0.665436,-1.742096,-0.321503,682564.102564,104624908.424908,76892014.652015,75.536362,1,2,1,2,2,80.000000
2025-05-02 15:38:35.014,0.8396097007898313,0.3064022766919924,0,0.9038687653375649,0.6015440227380616,0.03279578449269924,0,0.3505158613351724,0.2927342591342341,0.1592855703646595,0,0.01876098939764646,0.6022147048361141,0.1015840001825329,0,0.4323780601399712,0.09557813289443065,-0.1071389945691074,0,-0.4022753195332056,747.8388278388279,775.6410256410256,667.2527472527473,786.9230769230769,635.4212454212454,-0.003113,0.085571,1.000122,0.142059,-1.540222,-0.209351,684175.824176,104562051.282051,77004835.164835,72.912445,1,2,1,2,2,80.000000
2025-05-02 15:38:35.598,,,,,,,,,,,,,,,,,,,,,,,,,,,,,,,,,,,,,,,,,,/muse/elements/blink
2025-05-02 15:38:36.013,0.8396097007898313,-0.1509478076467041,0,0.9038687653375649,0.6015440227380616,-0.01322439037653384,0,0.3505158613351724,0.2927342591342341,-0.02189860884186479,0,0.01876098939764646,0.6022147048361141,0.1219234007441296,0,0.4323780601399712,0.09557813289443065,-0.187097576637008,0,-0.4022753195332056,773.6263736263736,785.7142857142858,475.0549450549451,803.8461538461539,1053.663003663004,-0.000366,0.080872,1.008057,0.246735,-0.874786,0.755157,684175.824176,104826373.626374,77120879.120879,70.520905,1,2,1,2,2,80.000000
2025-05-02 15:38:36.915,,,,,,,,,,,,,,,,,,,,,,,,,,,,,,,,,,,,,,,,,,/muse/elements/blink
2025-05-02 15:38:37.010,0.8396097007898313,0.3413779076337031,0,0.9038687653375649,0.6015440227380616,0.03034052692256055,0,0.3505158613351724,0.2927342591342341,0.1444376375923215,0,0.01876098939764646,0.6022147048361141,0.06132006327651708,0,0.4323780601399712,0.09557813289443065,-0.3103752276246341,0,-0.4022753195332056,824.3956043956044,783.6996336996338,880,803.4432234432235,616.4835164835165,0.001892,0.086792,1.003723,0.186920,-1.136475,-1.480408,683369.963370,104774798.534799,77097509.157509,70.030884,1,2,1,2,2,80.000000
2025-05-02 15:38:38.009,0.8396097007898313,0.4847563692314374,0,0.9038687653375649,0.6015440227380616,0.3813319673510741,0,0.3505158613351724,0.2927342591342341,0.2239622042382505,0,0.01876098939764646,0.6022147048361141,0.03595708276417892,0,0.4323780601399712,0.09557813289443065,-0.2456638831847738,0,-0.4022753195332056,792.967032967033,793.7728937728938,815.1282051282052,829.6336996336996,884.4322344322345,-0.009949,0.090332,1.003174,0.725250,-1.532745,1.585083,684175.824176,105031062.271062,77111208.791209,72.037056,1,2,1,2,2,80.000000
2025-05-02 15:38:38.041,,,,,,,,,,,,,,,,,,,,,,,,,,,,,,,,,,,,,,,,,,/muse/elements/blink
2025-05-02 15:38:39.008,0.8396097007898313,0.1588097986868215,0,0.9038687653375649,0.6015440227380616,0.09548432660807597,0,0.3505158613351724,0.2927342591342341,0.1160756272531713,0,0.01876098939764646,0.6022147048361141,0.014770666401845,0,0.4323780601399712,0.09557813289443065,-0.2392081883551684,0,-0.4022753195332056,756.3003663003664,787.7289377289378,701.9047619047619,790.1465201465202,738.974358974359,-0.006531,0.090332,1.002625,0.037384,-2.355194,-0.613098,684175.824176,105251062.271062,77166813.186813,72.821907,1,2,1,2,2,80.000000
2025-05-02 15:38:40.008,0.3443680990854957,-0.002758382540899806,0,0.3990007989927534,0.4771882109202915,-0.1127367739228347,0,0.352992021282396,0.433803442425493,0.01390072992989522,0,0.4132351099556713,0.3306789886381608,-0.02331859946091126,0,0.3656445520752479,0.01160873174195255,-0.3580815520933131,0,-0.117922785908741,828.4249084249085,789.3406593406594,807.4725274725275,791.7582417582418,609.6336996336996,-0.003845,0.086243,1.003662,0.246735,-1.286011,-0.343933,684175.824176,104978681.318681,77049157.509158,73.413361,1,1,1,2,1,80.000000
2025-05-02 15:38:40.460,,,,,,,,,,,,,,,,,,,,,,,,,,,,,,,,,,,,,,,,,,/muse/elements/blink
2025-05-02 15:38:41.008,0.2928616670270787,0.469071121630841,0,0.4385294226776387,0.2190385048588029,-0.09967960606348152,0,0.4910047628483301,0.2014938977473343,0.06421379485426458,0,0.3555043945642358,0.3646761595951656,0.01584561152822275,0,0.3509660164699976,-0.03862505922401682,-0.2948241554670514,0,-0.137557330614211,749.8534798534798,796.1904761904763,861.0622710622711,785.3113553113553,609.2307692307693,-0.002075,0.088928,0.998718,0.837402,-1.929016,-0.097198,683369.963370,104761904.761905,77065274.725275,73.885689,1,1,1,2,1,80.000000
2025-05-02 15:38:41.879,,,,,,,,,,,,,,,,,,,,,,,,,,,,,,,,,,,,,,,,,,/muse/elements/blink
2025-05-02 15:38:42.007,0.352138918172709,0.4529287450718518,0,0.4884724079952733,0.06312170125588407,-0.01792420223875591,0,0.5962920809788408,0.07574623779861132,0.0240024720735123,0,0.1578393778800389,0.2689467121155992,-0.001431195874223476,0,0.3065317293912984,-0.1212654179701822,-0.2283764847074043,0,-0.1158114444074418,757.9120879120879,793.3699633699634,854.2124542124542,821.5750915750916,662.8205128205128,-0.002625,0.095642,1.003235,-0.142059,-1.607513,-1.181335,683369.963370,104448424.908425,77115238.095238,72.402359,1,1,1,2,1,80.000000
2025-05-02 15:38:43.008,0.352138918172709,-0.3218123333451128,0,0.4884724079952733,0.06312170125588407,-0.01314915462365145,0,0.5962920809788408,0.07574623779861132,0.2693288101017246,0,0.1578393778800389,0.2689467121155992,-0.01720138351094667,0,0.3065317293912984,-0.1212654179701822,-0.2407653283992704,0,-0.1158114444074418,833.6630036630037,786.9230769230769,931.1721611721612,795.3846153846154,633.4065934065934,-0.002380,0.090820,1.000488,1.024323,-1.203766,0.269165,683369.963370,104227619.047619,77230476.190476,70.984001,1,2,1,2,2,80.000000
2025-05-02 15:38:44.007,0.898126237946832,-0.02904774015499422,0,0.7483960107546282,0.6285129173401678,-0.06290400180101183,0,0.3917255080560506,0.6126919235819477,0.2366771316853331,0,0.5600029966461161,0.4338646014006802,-0.0426770030023986,0,0.3485637338572096,0.05623318659049282,-0.1467969995039888,0,-0.1862983127317489,786.5201465201466,783.6996336996338,863.8827838827839,794.1758241758242,683.3699633699634,-0.001709,0.088867,1.005371,1.136475,-2.063599,1.368256,689010.989011,104812673.992674,77585054.945055,70.853561,1,1,1,2,1,80.000000
2025-05-02 15:38:44.833,,,,,,,,,,,,,,,,,,,,,,,,,,,,,,,,,,,,,,,,,,/muse/elements/blink
2025-05-02 15:38:45.014,0.8534362043317454,0.5024200535549066,0,0.8978666601374062,0.757906752604619,0.158439032587014,0,0.5730083353976624,0.7268032210513428,0.3542778165373349,0,0.4324455531449822,0.4007967481384069,-0.008379881964624658,0,0.3533920235856393,0.002767103122610266,-0.05292918840838109,0,-0.3532123715070821,740.1831501831502,792.967032967033,559.2673992673992,793.7728937728938,835.6776556776557,0.005493,0.091797,0.998962,0.142059,-2.160797,-0.433655,692234.432234,105276043.956044,77669670.329670,69.882912,1,1,1,2,1,80.000000
2025-05-02 15:38:45.450,,,,,,,,,,,,,,,,,,,,,,,,,,,,,,,,,,,,,,,,,,/muse/elements/blink
2025-05-02 15:38:46.013,0.5657041491370559,0.6116909265116411,0,0.8718374667415563,0.5283338651136719,0.5674881207741074,0,0.4844540914239494,0.6775779123589996,0.4788440291116043,0,0.3191361526834198,0.4430422037799019,0.04254108597750231,0,0.3742561951488467,-0.06466537290109639,-0.0276144582621278,0,-0.2773955892178137,840.5128205128206,784.1025641025641,918.6813186813187,806.2637362637363,599.5604395604396,0.001099,0.086548,1.003723,0.246735,-0.897217,0.366364,690622.710623,104915824.175824,77411794.871795,69.563911,1,1,1,2,1,80.000000
2025-05-02 15:38:46.766,,,,,,,,,,,,,,,,,,,,,,,,,,,,,,,,,,,,,,,,,,/muse/elements/blink
2025-05-02 15:38:47.007,0.5657041491370559,0.7674019124980314,0,0.8718374667415563,0.5283338651136719,0.4373730852703495,0,0.4844540914239494,0.6775779123589996,0.4439769167209156,0,0.3191361526834198,0.4430422037799019,0.147678563279511,0,0.3742561951488467,-0.06466537290109639,-0.1571380324404848,0,-0.2773955892178137,768.7912087912088,778.0586080586081,794.1758241758242,781.6849816849817,721.6483516483516,-0.001831,0.090698,1.008667,0.755157,-1.547699,0.314026,688205.128205,104408937.728938,77398901.098901,70.436363,1,1,1,2,1,80.000000
2025-05-02 15:38:47.683,,,,,,,,,,,,,,,,,,,,,,,,,,,,,,,,,,,,,,,,,,/muse/elements/blink
2025-05-02 15:38:48.016,0.5657041491370559,0.9702001754268099,0,0.8718374667415563,0.5283338651136719,0.3510121192333328,0,0.4844540914239494,0.6775779123589996,0.2771081526743832,0,0.3191361526834198,0.4430422037799019,0.1144318372386342,0,0.3742561951488467,-0.06466537290109639,-0.2320302161704673,0,-0.2773955892178137,736.5567765567765,789.3406593406594,784.5054945054945,789.3406593406594,637.032967032967,-0.000244,0.091370,1.010437,0.269165,-1.562653,-0.717773,684175.824176,103964908.424908,77354578.754579,70.795921,1,2,1,2,2,80.000000
2025-05-02 15:38:48.407,,,,,,,,,,,,,,,,,,,,,,,,,,,,,,,,,,,,,,,,,,/muse/elements/blink
2025-05-02 15:38:49.007,0.5657041491370559,0.3753202640428182,0,0.8718374667415563,0.5283338651136719,0.2971345527657172,0,0.4844540914239494,0.6775779123589996,0.2516167541925968,0,0.3191361526834198,0.4430422037799019,0.0961252574043408,0,0.3742561951488467,-0.06466537290109639,-0.2973740525268785,0,-0.2773955892178137,780.0732600732601,786.9230769230769,973.4798534798535,789.7435897435897,571.3553113553114,-0.001038,0.088989,1.003967,0.807495,-1.749573,1.128998,685787.545788,104044688.644689,77572161.172161,70.104187,1,2,1,2,2,80.000000
2025-05-02 15:38:49.621,,,,,,,,,,,,,,,,,,,,,,,,,,,,,,,,,,,,,,,,,,/muse/elements/blink
2025-05-02 15:38:50.015,0.5657041491370559,0.5110056613876587,0,0.8718374667415563,0.5283338651136719,0.2684696136407764,0,0.4844540914239494,0.6775779123589996,0.2979468860463083,0,0.3191361526834198,0.4430422037799019,0.004805866806959687,0,0.3742561951488467,-0.06466537290109639,-0.3612129668720209,0,-0.2773955892178137,777.2527472527473,789.7435897435897,871.941391941392,789.7435897435897,680.5494505494506,0.000854,0.095764,1.002625,0.785065,-1.682281,-0.179443,688205.128205,104636190.476190,77860659.340659,70.448975,1,2,1,2,2,80.000000
2025-05-02 15:38:50.639,,,,,,,,,,,,,,,,,,,,,,,,,,,,,,,,,,,,,,,,,,/muse/elements/blink
2025-05-02 15:38:51.011,0.5657041491370559,0.567675937714284,0,0.8718374667415563,0.5283338651136719,0.3208249026627135,0,0.4844540914239494,0.6775779123589996,0.2289356981312213,0,0.3191361526834198,0.4430422037799019,0.07389885010434215,0,0.3742561951488467,-0.06466537290109639,-0.1681342214391595,0,-0.2773955892178137,680.952380952381,792.5641025641025,695.0549450549451,718.021978021978,765.5677655677656,0.014160,0.075073,1.001587,-2.003784,-2.250519,-1.727142,689816.849817,105138241.758242,78008937.728938,70.627037,1,2,1,2,2,80.000000
2025-05-02 15:38:51.256,,,,,,,,,,,,,,,,,,,,,,,,,,,,,,,,,,,,,,,,,,/muse/elements/blink
2025-05-02 15:38:52.011,0.5657041491370559,0.7368750152775533,0,0.8718374667415563,0.5283338651136719,0.2571192826237932,0,0.4844540914239494,0.6775779123589996,0.4299202026690202,0,0.3191361526834198,0.4430422037799019,0.08962926284994027,0,0.3742561951488467,-0.06466537290109639,-0.2311708331597106,0,-0.2773955892178137,929.1575091575091,817.948717948718,933.992673992674,880,674.1025641025641,-0.038818,0.085876,1.009460,0.261688,-6.063690,-2.519684,689010.989011,105101172.161172,77719633.699634,70.083199,1,2,1,2,2,80.000000
2025-05-02 15:38:52.043,,,,,,,,,,,,,,,,,,,,,,,,,,,,,,,,,,,,,,,,,,/muse/elements/blink
2025-05-02 15:38:52.745,,,,,,,,,,,,,,,,,,,,,,,,,,,,,,,,,,,,,,,,,,/muse/elements/blink
2025-05-02 15:38:53.006,0.5657041491370559,1.038217557201479,0,0.8718374667415563,0.5283338651136719,0.9354014395554248,0,0.4844540914239494,0.6775779123589996,1.025751770202834,0,0.3191361526834198,0.4430422037799019,0.3506611361971685,0,0.3742561951488467,-0.06466537290109639,-0.06889317385686558,0,-0.2773955892178137,805.8608058608058,799.8168498168499,1056.080586080586,810.2930402930403,618.4981684981685,-0.042786,0.073669,0.991760,-0.560760,-2.429962,-1.016846,678534.798535,104657142.857143,76945201.465201,70.373283,1,2,1,2,2,80.000000
2025-05-02 15:38:53.364,,,,,,,,,,,,,,,,,,,,,,,,,,,,,,,,,,,,,,,,,,/muse/elements/jaw_clench
2025-05-02 15:38:53.449,,,,,,,,,,,,,,,,,,,,,,,,,,,,,,,,,,,,,,,,,,/muse/elements/blink
2025-05-02 15:38:53.790,,,,,,,,,,,,,,,,,,,,,,,,,,,,,,,,,,,,,,,,,,/muse/elements/blink
2025-05-02 15:38:54.013,0.5657041491370559,0.8290354721168505,0,0.8718374667415563,0.5283338651136719,0.826136727908566,0,0.4844540914239494,0.6775779123589996,1.013099208435655,0,0.3191361526834198,0.4430422037799019,0.37889031007185,0,0.3742561951488467,-0.06466537290109639,0.09294031399095069,0,-0.2773955892178137,932.7838827838829,785.7142857142858,1091.941391941392,1031.904761904762,744.2124542124542,-0.010071,0.099426,1.001404,-0.291595,2.661743,0.291595,650329.670330,103479780.219780,74936996.336996,70.152687,1,2,1,2,2,80.000000
2025-05-02 15:38:54.046,,,,,,,,,,,,,,,,,,,,,,,,,,,,,,,,,,,,,,,,,,/muse/elements/blink
2025-05-02 15:38:54.577,,,,,,,,,,,,,,,,,,,,,,,,,,,,,,,,,,,,,,,,,,/muse/elements/blink
2025-05-02 15:38:55.013,0.5657041491370559,0.1871456065626414,0,0.8718374667415563,0.5283338651136719,0.598065767022712,0,0.4844540914239494,0.6775779123589996,0.208579390927384,0,0.3191361526834198,0.4430422037799019,0.5841058411502476,0,0.3742561951488467,-0.06466537290109639,1.04971085195645,0,-0.2773955892178137,944.4688644688645,792.967032967033,896.9230769230769,810.6959706959707,670.8791208791209,-0.015991,0.086487,1.003113,-0.044861,-0.882263,0.276642,653553.113553,103286373.626374,74897509.157509,70.333702,1,2,1,2,2,80.000000
2025-05-02 15:38:55.426,,,,,,,,,,,,,,,,,,,,,,,,,,,,,,,,,,,,,,,,,,/muse/elements/blink
2025-05-02 15:38:56.006,0.5657041491370559,0.5323197760613462,0,0.8718374667415563,0.5283338651136719,0.5239900186683007,0,0.4844540914239494,0.6775779123589996,0.2335423097570793,0,0.3191361526834198,0.4430422037799019,0.4465469032437178,0,0.3742561951488467,-0.06466537290109639,0.7423928803124853,0,-0.2773955892178137,846.959706959707,778.8644688644689,780.4761904761905,805.0549450549451,684.1758241758242,-0.026184,0.081604,1.001404,0.912170,-1.181335,-0.545807,674505.494505,104230842.490842,76420586.080586,72.036774,1,2,1,2,2,80.000000
2025-05-02 15:38:57.007,1.08974726992263,0.6314464241669653,0,1.233536569238462,0.7672716838618534,0.2788819029191929,0,1.312374409792269,0.8760830062121298,0.3254104924628977,0,1.450103801049285,0.5573615833115031,0.09571340669129055,0,0.6663888769769076,0.123562213780193,-0.2820913976931476,0,-0.0162116712545497,736.959706959707,788.9377289377289,852.6007326007326,784.9084249084249,543.5531135531136,-0.028503,0.084595,1.006592,0.852356,-0.710297,-0.672913,674505.494505,104102710.622711,76510842.490842,74.012856,1,1,1,2,1,80.000000
2025-05-02 15:38:57.427,,,,,,,,,,,,,,,,,,,,,,,,,,,,,,,,,,,,,,,,,,/muse/elements/blink
2025-05-02 15:38:58.011,1.174944395470348,0.9474676319172728,0,1.170873442101593,0.8179108471476829,0.4392181433759746,0,0.9348870026266256,0.8189836106810311,0.4053097729598545,0,0.6639131066611565,0.5100201395780051,0.04353655213413476,0,0.6595797797988068,0.1242618933833863,-0.1949190070419933,0,0.02535970479327607,861.8681318681319,805.8608058608058,979.1208791208792,810.6959706959707,578.2051282051282,-0.023743,0.084656,1.001770,0.777588,-1.457977,0.014954,672087.912088,103747326.007326,76436703.296703,78.274506,1,1,1,2,1,80.000000
2025-05-02 15:38:59.014,0.8685995533039337,0.8208666342117766,0,1.277730697006053,0.4631963885055853,0.481545104243384,0,0.9840408724170615,0.815853709553679,0.4546404552266096,0,0.5075249421105166,0.4505546419474242,0.1339393417173459,0,0.6524376607350149,-0.02233448206091783,-0.2836839264824415,0,0.05475275197301818,730.1098901098901,795.3846153846154,875.9706959706959,702.7106227106227,748.2417582417582,-0.023438,0.091492,0.997925,0.336456,-1.173859,-0.448608,672087.912088,103550695.970696,76555970.695971,80.624428,1,1,1,2,1,80.000000
2025-05-02 15:38:59.176,,,,,,,,,,,,,,,,,,,,,,,,,,,,,,,,,,,,,,,,,,/muse/elements/blink
2025-05-02 15:38:59.368,,,,,,,,,,,,,,,,,,,,,,,,,,,,,,,,,,,,,,,,,,/muse/elements/blink
2025-05-02 15:38:59.687,,,,,,,,,,,,,,,,,,,,,,,,,,,,,,,,,,,,,,,,,,/muse/elements/blink
2025-05-02 15:39:00.016,0.8685995533039337,0.2847870867121729,0,1.277730697006053,0.4631963885055853,0.4080113284712049,0,0.9840408724170615,0.815853709553679,0.4114250590434877,0,0.5075249421105166,0.4505546419474242,0.2890203397199606,0,0.6524376607350149,-0.02233448206091783,-0.3614359878503264,0,0.05475275197301818,852.1978021978023,808.2783882783883,785.7142857142858,867.9120879120879,689.0109890109891,-0.023682,0.092285,1.000427,0.844879,-1.084137,-0.657959,673699.633700,103716703.296703,76754212.454212,78.231430,1,1,1,2,1,80.000000
2025-05-02 15:39:00.049,,,,,,,,,,,,,,,,,,,,,,,,,,,,,,,,,,,,,,,,,,/muse/elements/blink
2025-05-02 15:39:01.011,0.8685995533039337,0.3123746262787942,0,1.277730697006053,0.4631963885055853,0.4600500225650884,0,0.9840408724170615,0.815853709553679,0.4101026513259055,0,0.5075249421105166,0.4505546419474242,0.3550187682486626,0,0.6524376607350149,-0.02233448206091783,-0.4681318764806952,0,0.05475275197301818,976.7032967032967,860.6593406593407,974.6886446886447,920.2930402930403,633.4065934065934,-0.019775,0.091675,1.003906,0.538330,-1.899109,-1.585083,673699.633700,103485421.245421,76744542.124542,75.241058,1,1,1,2,1,80.000000
2025-05-02 15:39:01.087,,,,,,,,,,,,,,,,,,,,,,,,,,,,,,,,,,,,,,,,,,/muse/elements/blink
2025-05-02 15:39:01.300,,,,,,,,,,,,,,,,,,,,,,,,,,,,,,,,,,,,,,,,,,/muse/elements/blink
2025-05-02 15:39:01.876,,,,,,,,,,,,,,,,,,,,,,,,,,,,,,,,,,,,,,,,,,/muse/elements/blink
2025-05-02 15:39:02.007,0.8685995533039337,0.3123746262787942,0,1.277730697006053,0.4631963885055853,0.4600500225650884,0,0.9840408724170615,0.815853709553679,0.4101026513259055,0,0.5075249421105166,0.4505546419474242,0.3550187682486626,0,0.6524376607350149,-0.02233448206091783,-0.4681318764806952,0,0.05475275197301818,845.3479853479854,786.5201465201466,729.3040293040293,810.2930402930403,840.5128205128206,-0.015503,0.089600,0.998047,0.448608,-1.659851,0.852356,676117.216117,103628864.468864,77024175.824176,73.583710,1,2,1,2,2,80.000000
2025-05-02 15:39:03.008,0.8685995533039337,0.3123746262787942,0,1.277730697006053,0.4631963885055853,0.4600500225650884,0,0.9840408724170615,0.815853709553679,0.4101026513259055,0,0.5075249421105166,0.4505546419474242,0.3550187682486626,0,0.6524376607350149,-0.02233448206091783,-0.4681318764806952,0,0.05475275197301818,726.4835164835165,795.7875457875458,790.1465201465202,753.4798534798535,581.025641025641,-0.011292,0.093750,1.003174,0.411224,-1.540222,-0.545807,679340.659341,103996336.996337,77297362.637363,73.574059,1,2,1,2,2,80.000000
2025-05-02 15:39:04.008,0.8427262759771915,0.2244487637552279,0,0.8401985918964227,0.8609083122851193,-0.1352971954337605,0,0.7936399930111004,0.7188708927796937,0.2660290857489537,0,0.6358187692556022,0.4457031462023167,-0.003349253837638239,0,0.5631033395815981,-0.1224635786903707,-0.09666499863777336,0,-0.1784464318268101,854.2124542124542,794.5787545787546,931.1721611721612,810.2930402930403,672.4908424908425,-0.009521,0.089783,1.000977,0.299072,-1.293488,0.575714,680952.380952,104256630.036630,77362637.362637,72.904808,1,1,1,2,1,80.000000
2025-05-02 15:39:05.007,0.6890632479608383,0.1990691811366153,0,0.5674761065616714,0.6441166396260837,0.1024637084962685,0,0.7344436903156538,0.741272397107837,0.3524927274253277,0,0.6688013634030127,0.4278875569496324,0.0991736893647196,0,0.5626646439609801,0.03532965924581115,-0.2441951972137413,0,-0.2277815479709504,885.6410256410256,786.9230769230769,897.7289377289378,851.3919413919414,699.4871794871796,-0.012329,0.088440,1.003540,0.545807,-1.884155,0.321503,684981.684982,104574139.194139,77475457.875458,73.369965,1,1,1,2,1,80.000000
2025-05-02 15:39:05.035,,,,,,,,,,,,,,,,,,,,,,,,,,,,,,,,,,,,,,,,,,/muse/elements/blink
2025-05-02 15:39:05.461,,,,,,,,,,,,,,,,,,,,,,,,,,,,,,,,,,,,,,,,,,/muse/elements/blink
2025-05-02 15:39:06.007,0.498157830839333,0.4060814942068745,0,0.1146801398554621,0.4811655818727019,0.1800383821567353,0,0.6418300527801647,0.4594578302816539,0.2968154715430858,0,0.3463110472603599,0.5410687153137742,0.1037565004508623,0,0.6099423664220771,-0.0005653882753090984,-0.1992944693654798,0,-0.293949957202649,774.8351648351648,799.4139194139194,849.3772893772895,796.996336996337,684.981684981685,-0.010498,0.090332,1.001038,0.418701,0.119629,0.523376,685787.545788,104674871.794872,77461758.241758,73.384537,1,1,1,2,1,80.000000
2025-05-02 15:39:06.056,,,,,,,,,,,,,,,,,,,,,,,,,,,,,,,,,,,,,,,,,,/muse/elements/blink
2025-05-02 15:39:06.248,,,,,,,,,,,,,,,,,,,,,,,,,,,,,,,,,,,,,,,,,,/muse/elements/blink
2025-05-02 15:39:07.007,0.498157830839333,0.5339833934821807,0,0.1146801398554621,0.4811655818727019,0.3321737685913383,0,0.6418300527801647,0.4594578302816539,0.5211062166012378,0,0.3463110472603599,0.5410687153137742,0.1132424034141446,0,0.6099423664220771,-0.0005653882753090984,-0.2615403897034687,0,-0.293949957202649,832.0512820512821,784.1025641025641,900.1465201465202,795.7875457875458,847.3626373626374,-0.004883,0.101562,0.998718,1.854248,-2.071075,0.650482,684981.684982,104524175.824176,77442417.582418,73.365875,1,1,1,2,1,80.000000
2025-05-02 15:39:07.270,,,,,,,,,,,,,,,,,,,,,,,,,,,,,,,,,,,,,,,,,,/muse/elements/blink
2025-05-02 15:39:08.006,0.498157830839333,0.7359347693279691,0,0.1146801398554621,0.4811655818727019,0.01482281274241364,0,0.6418300527801647,0.4594578302816539,0.1960150821185963,0,0.3463110472603599,0.5410687153137742,0.07452574024971617,0,0.6099423664220771,-0.0005653882753090984,-0.2077948894357386,0,-0.293949957202649,827.6190476190476,774.4322344322345,926.3369963369963,789.3406593406594,684.981684981685,-0.021423,0.091553,0.994812,0.545807,-0.500946,0.224304,684981.684982,104039853.479853,77444029.304029,71.583809,1,2,1,2,2,80.000000
2025-05-02 15:39:08.673,,,,,,,,,,,,,,,,,,,,,,,,,,,,,,,,,,,,,,,,,,/muse/elements/blink
2025-05-02 15:39:09.007,0.498157830839333,0.7435697323578957,0,0.1146801398554621,0.4811655818727019,0.05206805392028091,0,0.6418300527801647,0.4594578302816539,0.2413068312789542,0,0.3463110472603599,0.5410687153137742,-0.00751439026688575,0,0.6099423664220771,-0.0005653882753090984,-0.3081799096170972,0,-0.293949957202649,782.893772893773,792.1611721611722,907.3992673992674,789.7435897435897,554.4322344322344,-0.018616,0.095825,1.001770,0.575714,-2.392578,0.785065,688205.128205,103989084.249084,77568131.868132,66.811615,1,2,1,2,2,80.000000
2025-05-02 15:39:10.010,0.498157830839333,0.7397959448718708,0,0.1146801398554621,0.4811655818727019,0.3898176876909712,0,0.6418300527801647,0.4594578302816539,0.3005152289752737,0,0.3463110472603599,0.5410687153137742,0.05481691462422322,0,0.6099423664220771,-0.0005653882753090984,-0.2077929908774517,0,-0.293949957202649,831.6483516483516,792.967032967033,1016.190476190476,795.7875457875458,712.7838827838829,-0.014893,0.094055,0.998474,0.829926,-2.564545,0.478516,686593.406593,104399267.399267,77788131.868132,63.727436,1,2,1,2,2,80.000000
2025-05-02 15:39:10.427,,,,,,,,,,,,,,,,,,,,,,,,,,,,,,,,,,,,,,,,,,/muse/elements/blink
2025-05-02 15:39:11.012,0.498157830839333,0.2694719610419622,0,0.1146801398554621,0.4811655818727019,0.1201661409578864,0,0.6418300527801647,0.4594578302816539,0.2999066894082139,0,0.3463110472603599,0.5410687153137742,0.07121202875720668,0,0.6099423664220771,-0.0005653882753090984,-0.2583329773279073,0,-0.293949957202649,850.5860805860806,784.9084249084249,913.4432234432235,795.3846153846154,744.6153846153846,-0.001343,0.099731,1.004211,0.493469,-0.598145,-1.345825,684981.684982,104451648.351648,77867912.087912,64.427315,1,2,1,2,2,80.000000
2025-05-02 15:39:11.636,,,,,,,,,,,,,,,,,,,,,,,,,,,,,,,,,,,,,,,,,,/muse/elements/blink
2025-05-02 15:39:12.009,0.498157830839333,0.3270102138867239,0,0.1146801398554621,0.4811655818727019,0.2266108568636926,0,0.6418300527801647,0.4594578302816539,0.5520715294544879,0,0.3463110472603599,0.5410687153137742,0.2609267844653145,0,0.6099423664220771,-0.0005653882753090984,-0.3759852002602516,0,-0.293949957202649,643.0769230769231,798.2051282051282,936.007326007326,652.3443223443223,579.8168498168499,0.000916,0.099854,1.005127,0.493469,-1.480408,-0.478516,686593.406593,104504835.164835,77875970.695971,65.290146,1,2,1,2,2,80.000000
2025-05-02 15:39:12.148,,,,,,,,,,,,,,,,,,,,,,,,,,,,,,,,,,,,,,,,,,/muse/elements/blink
2025-05-02 15:39:12.681,,,,,,,,,,,,,,,,,,,,,,,,,,,,,,,,,,,,,,,,,,/muse/elements/blink
2025-05-02 15:39:12.958,,,,,,,,,,,,,,,,,,,,,,,,,,,,,,,,,,,,,,,,,,/muse/elements/blink
2025-05-02 15:39:13.012,0.498157830839333,0.4817738056451338,0,0.1146801398554621,0.4811655818727019,0.240183503874442,0,0.6418300527801647,0.4594578302816539,0.5129411744906118,0,0.3463110472603599,0.5410687153137742,0.2817942001648086,0,0.6099423664220771,-0.0005653882753090984,-0.3030974745042054,0,-0.293949957202649,853.4065934065934,783.2967032967033,969.8534798534798,832.0512820512821,680.952380952381,-0.012634,0.091614,0.999084,0.411224,-2.123413,0.852356,681758.241758,104144615.384615,77474652.014652,64.972931,1,2,1,2,2,80.000000
2025-05-02 15:39:13.365,,,,,,,,,,,,,,,,,,,,,,,,,,,,,,,,,,,,,,,,,,/muse/elements/blink
2025-05-02 15:39:14.006,0.498157830839333,0.8590815585679027,0,0.1146801398554621,0.4811655818727019,0.4456474339529467,0,0.6418300527801647,0.4594578302816539,0.5026186040042103,0,0.3463110472603599,0.5410687153137742,0.09779557268601945,0,0.6099423664220771,-0.0005653882753090984,-0.1503931703885513,0,-0.293949957202649,827.2161172161173,756.3003663003664,896.9230769230769,772.8205128205128,743.8095238095239,-0.008972,0.098267,1.004517,0.859833,-1.861725,0.403748,679340.659341,103687692.307692,77412600.732601,64.568596,1,2,1,2,2,80.000000
2025-05-02 15:39:14.684,,,,,,,,,,,,,,,,,,,,,,,,,,,,,,,,,,,,,,,,,,/muse/elements/blink
2025-05-02 15:39:15.011,0.498157830839333,0.9184555110533341,0,0.1146801398554621,0.4811655818727019,0.1412513396025509,0,0.6418300527801647,0.4594578302816539,0.2795097489129437,0,0.3463110472603599,0.5410687153137742,0.06506065400853664,0,0.6099423664220771,-0.0005653882753090984,-0.3017160635130682,0,-0.293949957202649,730.9157509157509,781.6849816849817,794.1758241758242,790.5494505494506,668.0586080586081,0.000122,0.101868,1.000366,0.740204,-1.742096,0.186920,676923.076923,103534578.754579,77626959.706960,65.370354,1,2,1,2,2,80.000000
2025-05-02 15:39:16.006,0.498157830839333,0.5081105673483352,0,0.1146801398554621,0.4811655818727019,0.03769267015974414,0,0.6418300527801647,0.4594578302816539,0.1088130896178116,0,0.3463110472603599,0.5410687153137742,0.1882132776998603,0,0.6099423664220771,-0.0005653882753090984,-0.3324521256439896,0,-0.293949957202649,811.0989010989011,789.7435897435897,890.0732600732601,778.8644688644689,829.6336996336996,0.003906,0.102661,1.000732,0.418701,-1.398163,-0.979462,674505.494505,103826300.366300,78029084.249084,65.033463,1,2,1,2,2,80.000000
2025-05-02 15:39:16.336,,,,,,,,,,,,,,,,,,,,,,,,,,,,,,,,,,,,,,,,,,/muse/elements/blink
2025-05-02 15:39:17.007,0.498157830839333,0.05905814407977643,0,0.1146801398554621,0.4811655818727019,-0.1854424432312798,0,0.6418300527801647,0.4594578302816539,0.2717055543378081,0,0.3463110472603599,0.5410687153137742,0.2231572670552228,0,0.6099423664220771,-0.0005653882753090984,-0.2106489757126423,0,-0.293949957202649,855.0183150183151,782.893772893773,971.0622710622711,790.5494505494506,697.4725274725275,-0.001648,0.099976,1.000793,0.373840,-1.323395,-0.276642,676117.216117,104204249.084249,78228131.868132,63.954529,1,2,1,2,2,80.000000
2025-05-02 15:39:17.638,,,,,,,,,,,,,,,,,,,,,,,,,,,,,,,,,,,,,,,,,,/muse/elements/blink
2025-05-02 15:39:18.010,0.498157830839333,0.1799789941793913,0,0.1146801398554621,0.4811655818727019,-0.07712467596540055,0,0.6418300527801647,0.4594578302816539,0.311005642898953,0,0.3463110472603599,0.5410687153137742,0.1240159158448617,0,0.6099423664220771,-0.0005653882753090984,-0.2100493975946267,0,-0.293949957202649,769.5970695970697,785.3113553113553,808.2783882783883,821.978021978022,671.6849816849817,0.001404,0.100891,1.004517,0.343933,-1.241150,-0.463562,675311.355311,104596703.296703,78353040.293040,64.146828,1,2,1,2,2,80.000000
2025-05-02 15:39:18.150,,,,,,,,,,,,,,,,,,,,,,,,,,,,,,,,,,,,,,,,,,/muse/elements/blink
2025-05-02 15:39:19.012,0.498157830839333,0.2633300346738934,0,0.1146801398554621,0.4811655818727019,0.2759450194760437,0,0.6418300527801647,0.4594578302816539,0.3411903413304906,0,0.3463110472603599,0.5410687153137742,0.08190988477283652,0,0.6099423664220771,-0.0005653882753090984,-0.3286416293126178,0,-0.293949957202649,800.2197802197802,782.893772893773,935.6043956043957,799.4139194139194,591.9047619047619,-0.004883,0.101990,1.002502,0.732727,-0.942078,0.149536,675311.355311,104787692.307692,78394945.054945,63.840820,1,2,1,2,2,80.000000
2025-05-02 15:39:20.013,0.363983280222487,-0.1571839239222382,0,0.7439428970821572,0.2041960484628533,-0.02260470035737171,0,0.5506024629955216,0.4396981815335613,0.2160263449107076,0,0.6138812395777958,0.5134845517432051,0.1931676864098261,0,0.447182912088198,-0.1504498433758756,-0.1793753973545167,0,-0.08756653712034131,853.4065934065934,791.7582417582418,832.4542124542124,794.981684981685,718.4249084249085,-0.002441,0.103821,1.000427,0.441132,-1.689758,-0.411224,674505.494505,104668424.908425,78118534.798535,61.334911,1,1,1,2,1,80.000000
2025-05-02 15:39:21.006,0.2165285507621582,-0.3055700745497849,0,0.6780973449943098,0.2755178349781802,0.1170590870027339,0,0.4857135886088638,0.5554046541744816,0.08672645038106189,0,0.5447889191750951,0.4904479899304264,0.2445372781500716,0,0.4847197605460853,-0.160320053018928,-0.2146150540733567,0,-0.1005349113586102,814.7252747252747,785.7142857142858,951.7216117216118,790.5494505494506,594.3223443223443,-0.004333,0.099609,1.000793,0.343933,-0.942078,-0.343933,673699.633700,104355750.915751,77979926.739927,61.522343,1,1,1,2,1,80.000000
2025-05-02 15:39:21.623,,,,,,,,,,,,,,,,,,,,,,,,,,,,,,,,,,,,,,,,,,/muse/elements/blink
2025-05-02 15:39:22.007,0.1936903956531854,0.4381536414396596,0,0.3185098811037628,0.03774697416466086,0.1762515599400127,0,0.3784092636561255,0.3781308285070467,0.08906927980334911,0,0.2978033216899257,0.4227325449474166,0.2560581938930101,0,0.5126744476722632,-0.1349775444843218,-0.06022733631813308,0,-0.06728390428808835,788.5347985347986,794.1758241758242,844.1391941391942,806.6666666666667,784.1025641025641,-0.003662,0.099670,1.000305,0.508423,-1.435547,-0.478516,675311.355311,104432307.692308,78127399.267399,62.947903,1,1,1,2,1,80.000000
2025-05-02 15:39:23.007,0.2517647011538072,0.4528984956583829,0,0.2553564064213642,-0.08650397685475741,0.08786427622195593,0,0.448036371418679,0.3173891529708713,0.1148301087383095,0,0.2944249905542236,0.40265913087438,0.2722702964730067,0,0.5050805434678727,-0.1136495543269946,-0.03291400425357331,0,-0.003853696036489954,883.6263736263736,785.3113553113553,885.6410256410256,829.2307692307693,716.8131868131868,-0.004333,0.100647,0.997437,0.089722,-1.001892,-0.500946,680146.520147,104828791.208791,78393333.333333,63.408794,1,1,1,2,1,80.000000
2025-05-02 15:39:23.008,,,,,,,,,,,,,,,,,,,,,,,,,,,,,,,,,,,,,,,,,,/muse/elements/blink
2025-05-02 15:39:23.733,,,,,,,,,,,,,,,,,,,,,,,,,,,,,,,,,,,,,,,,,,/muse/elements/blink
2025-05-02 15:39:24.007,0.2517647011538072,0.1550964501244366,0,0.2553564064213642,-0.08650397685475741,0.2814920172909228,0,0.448036371418679,0.3173891529708713,0.4648174443976843,0,0.2944249905542236,0.40265913087438,0.09215336238844658,0,0.5050805434678727,-0.1136495543269946,-0.1340826743260259,0,-0.003853696036489954,845.7509157509157,783.6996336996338,977.1062271062272,802.2344322344322,585.4578754578755,-0.005066,0.104309,0.998413,0.209351,-1.368256,-0.381317,679340.659341,104923882.783883,78388498.168498,61.433735,1,1,1,2,1,80.000000
2025-05-02 15:39:25.007,0.2517647011538072,0.3809196885077492,0,0.2553564064213642,-0.08650397685475741,0.3598148447808666,0,0.448036371418679,0.3173891529708713,0.3772859895720218,0,0.2944249905542236,0.40265913087438,0.05463712997234393,0,0.5050805434678727,-0.1136495543269946,-0.08626184256273604,0,-0.003853696036489954,773.2234432234433,794.981684981685,863.0769230769231,794.981684981685,785.3113553113553,-0.003723,0.098877,1.002380,0.149536,-1.330872,-0.785065,677728.937729,104509670.329670,78169304.029304,60.357285,1,2,1,2,2,80.000000
2025-05-02 15:39:25.266,,,,,,,,,,,,,,,,,,,,,,,,,,,,,,,,,,,,,,,,,,/muse/elements/blink
2025-05-02 15:39:25.756,,,,,,,,,,,,,,,,,,,,,,,,,,,,,,,,,,,,,,,,,,/muse/elements/blink
2025-05-02 15:39:26.007,0.2517647011538072,0.310452192662553,0,0.2553564064213642,-0.08650397685475741,0.2933137881239637,0,0.448036371418679,0.3173891529708713,0.2701904691363817,0,0.2944249905542236,0.40265913087438,0.02992459909335908,0,0.5050805434678727,-0.1136495543269946,-0.122229181517705,0,-0.003853696036489954,855.8241758241759,792.967032967033,852.1978021978023,806.6666666666667,728.4981684981685,-0.005493,0.102356,1.002991,0.299072,-1.158905,-0.471039,674505.494505,103952820.512821,78024249.084249,60.293919,1,2,1,2,2,80.000000
2025-05-02 15:39:27.007,0.2517647011538072,0.2835814077895132,0,0.2553564064213642,-0.08650397685475741,0.130596115351024,0,0.448036371418679,0.3173891529708713,0.234416629215408,0,0.2944249905542236,0.40265913087438,-0.06630202813009595,0,0.5050805434678727,-0.1136495543269946,-0.1862292286139473,0,-0.003853696036489954,842.5274725274726,801.8315018315019,930.3663003663004,788.1318681318681,664.8351648351648,-0.006104,0.107483,1.005432,0.366364,-2.086029,-0.456085,676117.216117,103959267.399267,78133040.293040,59.284771,1,2,1,2,2,80.000000
2025-05-02 15:39:27.288,,,,,,,,,,,,,,,,,,,,,,,,,,,,,,,,,,,,,,,,,,/muse/elements/blink
2025-05-02 15:39:28.007,0.2517647011538072,0.2871234834529131,0,0.2553564064213642,-0.08650397685475741,0.09626992318831636,0,0.448036371418679,0.3173891529708713,0.3101510405131296,0,0.2944249905542236,0.40265913087438,-0.05192679263370967,0,0.5050805434678727,-0.1136495543269946,-0.2338221097367642,0,-0.003853696036489954,754.2857142857143,788.1318681318681,797.3992673992674,790.952380952381,868.7179487179487,-0.004272,0.102051,1.005188,0.411224,-1.779480,-0.246735,676923.076923,104267912.087912,78348205.128205,57.952522,1,2,1,2,2,80.000000
2025-05-02 15:39:28.329,,,,,,,,,,,,,,,,,,,,,,,,,,,,,,,,,,,,,,,,,,/muse/elements/blink
2025-05-02 15:39:29.007,0.2517647011538072,0.3034666792016787,0,0.2553564064213642,-0.08650397685475741,0.1142192384104552,0,0.448036371418679,0.3173891529708713,0.2929271324604447,0,0.2944249905542236,0.40265913087438,-0.03182971591462719,0,0.5050805434678727,-0.1136495543269946,-0.2080532266230671,0,-0.003853696036489954,834.4688644688645,794.5787545787546,818.7545787545788,805.4578754578755,767.1794871794872,-0.016296,0.103516,1.002625,0.710297,-1.472931,0.269165,677728.937729,104775604.395604,78533553.113553,58.342213,1,2,1,2,2,80.000000
2025-05-02 15:39:29.731,,,,,,,,,,,,,,,,,,,,,,,,,,,,,,,,,,,,,,,,,,/muse/elements/blink
2025-05-02 15:39:30.007,0.2517647011538072,0.2175039119032266,0,0.2553564064213642,-0.08650397685475741,-0.0305087057352745,0,0.448036371418679,0.3173891529708713,0.2782038496731287,0,0.2944249905542236,0.40265913087438,-0.06325294052743193,0,0.5050805434678727,-0.1136495543269946,-0.1994886103472245,0,-0.003853696036489954,858.2417582417582,795.7875457875458,940.0366300366301,803.8461538461539,597.5457875457876,-0.005249,0.104126,1.001282,0.403748,-2.250519,-0.112152,677728.937729,104937582.417582,78560146.520147,58.864265,1,2,1,2,2,80.000000
2025-05-02 15:39:30.859,,,,,,,,,,,,,,,,,,,,,,,,,,,,,,,,,,,,,,,,,,/muse/elements/blink
2025-05-02 15:39:31.007,0.2517647011538072,0.2206469620272873,0,0.2553564064213642,-0.08650397685475741,-0.03171083156446148,0,0.448036371418679,0.3173891529708713,0.3461171455670715,0,0.2944249905542236,0.40265913087438,4.734357883113507e-07,0,0.5050805434678727,-0.1136495543269946,-0.2109785420495427,0,-0.003853696036489954,744.6153846153846,788.9377289377289,871.1355311355312,790.1465201465202,559.2673992673992,-0.005127,0.108765,1.002014,0.396271,-1.869202,0.269165,676923.076923,104950476.190476,78436043.956044,59.035767,1,2,1,2,2,80.000000
2025-05-02 15:39:31.371,,,,,,,,,,,,,,,,,,,,,,,,,,,,,,,,,,,,,,,,,,/muse/elements/blink
2025-05-02 15:39:32.007,0.2517647011538072,0.5802928800270736,0,0.2553564064213642,-0.08650397685475741,0.423253865307712,0,0.448036371418679,0.3173891529708713,0.5692926882165867,0,0.2944249905542236,0.40265913087438,-0.0552464701245548,0,0.5050805434678727,-0.1136495543269946,-0.2609364674984907,0,-0.003853696036489954,831.6483516483516,792.1611721611722,692.6373626373627,807.8754578754579,954.5421245421246,-0.011963,0.106873,0.999756,0.628052,-1.502838,-0.149536,675311.355311,104533040.293040,78230549.450549,59.668667,1,2,1,2,2,80.000000
2025-05-02 15:39:32.179,,,,,,,,,,,,,,,,,,,,,,,,,,,,,,,,,,,,,,,,,,/muse/elements/blink
2025-05-02 15:39:33.007,0.2517647011538072,0.5433770954811767,0,0.2553564064213642,-0.08650397685475741,0.3968881994632391,0,0.448036371418679,0.3173891529708713,0.3406757614373465,0,0.2944249905542236,0.40265913087438,-0.05196105041198101,0,0.5050805434678727,-0.1136495543269946,-0.1957359645491673,0,-0.003853696036489954,828.4249084249085,793.3699633699634,964.2124542124542,768.7912087912088,716.007326007326,-0.011597,0.106201,1.002258,0.485992,-1.929016,-0.037384,674505.494505,104230842.490842,78066153.846154,59.608070,1,2,1,2,2,80.000000
2025-05-02 15:39:33.055,,,,,,,,,,,,,,,,,,,,,,,,,,,,,,,,,,,,,,,,,,/muse/elements/blink
2025-05-02 15:39:34.007,0.2517647011538072,0.379502900762676,0,0.2553564064213642,-0.08650397685475741,0.2458640555284174,0,0.448036371418679,0.3173891529708713,0.2469676837632475,0,0.2944249905542236,0.40265913087438,0.158690538798502,0,0.5050805434678727,-0.1136495543269946,-0.1463921758245348,0,-0.003853696036489954,747.8388278388279,790.5494505494506,835.6776556776557,788.1318681318681,709.1575091575091,-0.005188,0.108459,1.004028,0.291595,-1.413116,-0.269165,673699.633700,104090622.710623,78245054.945055,60.012383,1,2,1,2,2,80.000000
2025-05-02 15:39:35.007,0.8357550624585784,0.5408147597413889,0,0.9829298234419802,0.2378208562042414,0.3448166200996592,0,-0.3639282441489335,0.5570933696566939,0.3260174280846728,0,0.2686052878971625,0.5166555167029205,-0.0718342920948797,0,0.5920035171025357,0.01105288084842227,-0.2215918025949977,0,-0.0604534998163527,798.6080586080586,782.4908424908425,787.7289377289378,793.7728937728938,720.4395604395604,-0.006470,0.103943,1.001404,0.343933,-1.001892,-0.508423,675311.355311,104052747.252747,78539194.139194,62.206600,1,1,1,2,1,80.000000
2025-05-02 15:39:36.007,0.698608700632836,0.5032825236646163,0,0.7332360601714157,0.4241894303860473,0.0984487976778244,0,0.2408189000690421,0.6166086969515162,0.3112721811608952,0,0.4118567464108349,0.3030947253124934,-0.07614828336932151,0,0.4941776339670214,0.007843045838502424,-0.3513914908963912,0,-0.08522094759329407,845.7509157509157,780.0732600732601,940.0366300366301,790.5494505494506,649.5238095238095,-0.011963,0.107483,0.997986,0.373840,-1.443024,-0.157013,678534.798535,104373479.853480,78739047.619048,63.262272,1,1,1,2,1,80.000000
2025-05-02 15:39:36.436,,,,,,,,,,,,,,,,,,,,,,,,,,,,,,,,,,,,,,,,,,/muse/elements/blink
2025-05-02 15:39:36.947,,,,,,,,,,,,,,,,,,,,,,,,,,,,,,,,,,,,,,,,,,/muse/elements/blink
2025-05-02 15:39:37.007,0.7658911311541153,0.4215164214160912,0,0.5287670654322384,0.472827837658569,0.1064412763851728,0,0.4565067170456032,0.5087599884771672,0.4403099542484851,0,0.2453916493974245,0.2168744220025932,0.1216906576438507,0,0.4301577920192797,-0.0887820149787393,-0.332941468151053,0,-0.1247157623316536,856.6300366300367,794.981684981685,842.1245421245421,838.0952380952381,697.8754578754579,-0.006714,0.111938,1.001099,0.007477,-1.114044,-0.463562,683369.963370,104687765.567766,78872014.652015,62.152161,1,1,1,2,1,80.000000
2025-05-02 15:39:37.331,,,,,,,,,,,,,,,,,,,,,,,,,,,,,,,,,,,,,,,,,,/muse/elements/blink
2025-05-02 15:39:37.861,,,,,,,,,,,,,,,,,,,,,,,,,,,,,,,,,,,,,,,,,,/muse/elements/blink
2025-05-02 15:39:38.007,0.6615011540919604,0.5862301708106994,0,0.1464074784937987,0.4791866981727159,0.1531794736165917,0,0.3897390228082409,0.410860584027711,0.6650342939656475,0,0.1882147568813363,0.2976505227403568,0.09321936910684028,0,0.4694361202627233,-0.1837946620654147,-0.3203538265780587,0,-0.09262701144937668,800.2197802197802,796.5934065934066,792.5641025641025,797.8021978021978,690.2197802197802,-0.011841,0.108215,0.999023,0.037384,-1.173859,-0.351410,685787.545788,104683736.263736,78841391.941392,61.225323,1,1,1,2,1,80.000000
2025-05-02 15:39:38.264,,,,,,,,,,,,,,,,,,,,,,,,,,,,,,,,,,,,,,,,,,/muse/elements/blink
2025-05-02 15:39:38.965,,,,,,,,,,,,,,,,,,,,,,,,,,,,,,,,,,,,,,,,,,/muse/elements/blink
2025-05-02 15:39:39.007,0.6615011540919604,0.2529571938852186,0,0.1464074784937987,0.4791866981727159,0.4221252646957325,0,0.3897390228082409,0.410860584027711,0.2621940996081281,0,0.1882147568813363,0.2976505227403568,0.08260667427032517,0,0.4694361202627233,-0.1837946620654147,-0.3463586645816072,0,-0.09262701144937668,880.4029304029305,803.4432234432235,904.981684981685,841.7216117216118,759.5238095238095,-0.007935,0.109802,0.997375,0.276642,-1.009369,-0.149536,689010.989011,104388791.208791,78693113.553114,60.876450,1,2,1,2,2,80.000000
2025-05-02 15:39:39.665,,,,,,,,,,,,,,,,,,,,,,,,,,,,,,,,,,,,,,,,,,/muse/elements/blink
2025-05-02 15:39:40.017,0.6615011540919604,0.004568281320295296,0,0.1464074784937987,0.4791866981727159,0.01095767763365354,0,0.3897390228082409,0.410860584027711,0.1893384501086778,0,0.1882147568813363,0.2976505227403568,-0.01531111314864008,0,0.4694361202627233,-0.1837946620654147,-0.2235209824767423,0,-0.09262701144937668,742.6007326007326,788.5347985347986,475.4578754578754,805.4578754578755,1206.373626373626,-0.016296,0.113281,0.998840,0.403748,-1.218719,0.254211,691428.571429,104189743.589744,78531941.391941,59.960815,1,2,1,2,2,80.000000
2025-05-02 15:39:41.007,0.6615011540919604,0.1173771284598856,0,0.1464074784937987,0.4791866981727159,-0.1231502854244645,0,0.3897390228082409,0.410860584027711,0.0569921163907148,0,0.1882147568813363,0.2976505227403568,0.06129711581252686,0,0.4694361202627233,-0.1837946620654147,-0.1283557560322424,0,-0.09262701144937668,781.6849816849817,789.3406593406594,803.040293040293,798.6080586080586,668.8644688644689,-0.010071,0.115173,1.000549,0.478516,-1.308441,-0.239258,693846.153846,104152673.992674,78604468.864469,59.814075,1,2,1,2,2,80.000000
2025-05-02 15:39:41.502,,,,,,,,,,,,,,,,,,,,,,,,,,,,,,,,,,,,,,,,,,/muse/elements/blink
2025-05-02 15:39:42.007,0.25437361583857,-0.1301744593463134,0,0.5124738115778161,0.3968339682493744,0.01067507880295606,0,0.4643233947636619,0.3426377453767052,0.02864744820286272,0,0.4498345281759155,0.3795625460188132,0.01967678049314014,0,0.4722886181741974,-0.1060945006700605,-0.205251241059467,0,-0.2582126315729395,844.1391941391942,796.1904761904763,899.7435897435897,793.7728937728938,852.1978021978023,-0.008606,0.113037,1.002380,0.732727,-1.114044,0.351410,691428.571429,104068864.468864,78722930.402930,61.092014,1,1,1,2,1,80.000000
2025-05-02 15:39:43.007,-0.07895010137720641,-0.1862277983247126,0,0.2544091499062279,0.4516707450628066,-0.04112607519657719,0,0.7197445518495783,0.5091110772405757,0.1283851130575393,0,0.0286065191177252,0.4232043958225275,0.108081509555909,0,0.1090003077377773,0.008332563873235287,-0.2363635927270567,0,0.003707422232884211,730.5128205128206,788.9377289377289,755.4945054945055,784.9084249084249,763.5531135531136,-0.016113,0.113708,0.995300,0.426178,-0.545807,0.224304,691428.571429,104258241.758242,78889743.589744,61.931686,1,1,1,2,1,80.000000
2025-05-02 15:39:44.008,0.3579955080437169,0.06080435750938314,0,0.2223940822390405,0.4123248441496062,-0.2042810888616099,0,0.5609086404853718,0.5857800654494196,0.1618850690081824,0,0.3178400424806578,0.3576759528497823,0.1414082000405793,0,0.2724897189146644,-0.08979118755713375,-0.2161763127796357,0,-0.06480317234180751,788.1318681318681,793.3699633699634,780.8791208791209,817.1428571428571,684.981684981685,-0.010986,0.112488,1.000305,0.553284,-1.667328,0.306549,693040.293040,104596703.296703,78991282.051282,61.101109,1,1,1,2,1,80.000000
2025-05-02 15:39:44.638,,,,,,,,,,,,,,,,,,,,,,,,,,,,,,,,,,,,,,,,,,/muse/elements/blink
2025-05-02 15:39:45.009,0.8040927789079204,0.1587330586400934,0,0.4977771078183156,0.4173987165530672,-0.1102778377771253,0,0.5128266700996954,0.4573679562619807,0.06315261266587126,0,0.3294356830735198,0.3375435973563485,0.084430215332969,0,0.3927219712751098,-0.1735017546250447,-0.2176222537842447,0,-0.1532427819691206,817.5457875457876,796.5934065934066,946.4835164835165,801.025641025641,594.7252747252747,-0.010559,0.114807,1.000854,0.657959,-1.218719,0.388794,693846.153846,104619267.399267,79043663.003663,60.520092,1,1,1,2,1,80.000000
2025-05-02 15:39:46.001,,,,,,,,,,,,,,,,,,,,,,,,,,,,,,,,,,,,,,,,,,/muse/elements/blink
2025-05-02 15:39:46.011,0.9343690819335119,0.04109867152686173,0,0.6772811993090899,0.1864333836070751,-0.09305220200202867,0,0.5686277624070095,0.2454861021799694,0.1007974972098955,0,0.2262369593823539,0.1616758248913523,0.07323920985346619,0,0.3066841925113186,-0.07315847793108157,-0.1785413172233673,0,-0.1907507567365313,774.4322344322345,791.3553113553114,718.021978021978,815.5311355311355,823.1868131868132,-0.015930,0.112793,0.998230,0.231781,-1.809387,-0.044861,697069.597070,104562857.142857,79029157.509158,60.255936,1,1,1,2,1,80.000000
2025-05-02 15:39:46.704,,,,,,,,,,,,,,,,,,,,,,,,,,,,,,,,,,,,,,,,,,/muse/elements/blink
2025-05-02 15:39:47.006,0.9343690819335119,0.525145798580084,0,0.6772811993090899,0.1864333836070751,0.3790719069876732,0,0.5686277624070095,0.2454861021799694,0.5396040817636742,0,0.2262369593823539,0.1616758248913523,-0.04749594692559207,0,0.3066841925113186,-0.07315847793108157,-0.131188504546805,0,-0.1907507567365313,753.8827838827839,790.5494505494506,805.8608058608058,801.025641025641,612.8571428571429,-0.015503,0.113770,0.998596,0.725250,-1.480408,0.620575,697875.457875,104778827.838828,78971135.531136,59.804722,1,1,1,2,1,80.000000
2025-05-02 15:39:47.299,,,,,,,,,,,,,,,,,,,,,,,,,,,,,,,,,,,,,,,,,,/muse/elements/blink
2025-05-02 15:39:47.833,,,,,,,,,,,,,,,,,,,,,,,,,,,,,,,,,,,,,,,,,,/muse/elements/blink
