TimeStamp,Delta_TP9,Delta_AF7,Delta_AF8,Delta_TP10,Theta_TP9,Theta_AF7,Theta_AF8,Theta_TP10,Alpha_TP9,Alpha_AF7,Alpha_AF8,Alpha_TP10,Beta_TP9,Beta_AF7,Beta_AF8,Beta_TP10,Gamma_TP9,Gamma_AF7,Gamma_AF8,Gamma_TP10,RAW_TP9,RAW_AF7,RAW_AF8,RAW_TP10,AUX_RIGHT,Accelerometer_X,Accelerometer_Y,Accelerometer_Z,Gyro_X,Gyro_Y,Gyro_Z,PPG_Ambient,PPG_IR,PPG_Red,Heart_Rate,HeadBandOn,HSI_TP9,HSI_AF7,HSI_AF8,HSI_TP10,Battery,Elements
2025-05-02 15:15:50.547,,,,,,,,,,,,,,,,,,,,,,,,,,,,,,,,,,,,,,,,,,/muse/event/connected Muse-1C98
2025-05-02 15:15:50.615,,,,,,,,,,,,,,,,,,,,,,,,,,,,,,,,,,,,,,,,,,/muse/elements/blink
2025-05-02 15:15:50.621,,,,,,,,,,,,,,,,,,,,,,,,,,,,,,,,,,,,,,,,,,/muse/elements/blink
2025-05-02 15:15:50.754,,,,,,,,,,,,,,,,,,,,,,,,,,,,,,,,,,,,,,,,,,/muse/elements/blink
2025-05-02 15:15:51.548,0.7665339904393732,0.4336506891353896,0,0.9609157113281537,0.2712015548773659,0.1709598864656793,0,0.7154284094266029,0.5514737548396591,0.4653311457357656,0,0.4446322531146253,0.6944361599971185,0.7031067880957491,0,1.021298030468684,0.7087265945590612,0.367457615328988,0,0.9435038095163009,838.0952380952381,763.1501831501831,779.2673992673992,859.8534798534798,571.3553113553114,0.118164,0.122925,0.990662,1.368256,-2.572021,0.837402,1560146.520147,157899560.439560,113403956.043956,83.946388,1,2,2,1,2,60.000000
2025-05-02 15:15:52.070,,,,,,,,,,,,,,,,,,,,,,,,,,,,,,,,,,,,,,,,,,/muse/elements/blink
2025-05-02 15:15:52.547,0.7665339904393732,0.4336506891353896,0,0.9609157113281537,0.2712015548773659,0.1709598864656793,0,0.7154284094266029,0.5514737548396591,0.4653311457357656,0,0.4446322531146253,0.6944361599971185,0.7031067880957491,0,1.021298030468684,0.7087265945590612,0.367457615328988,0,0.9435038095163009,884.0293040293041,753.4798534798535,777.2527472527473,863.8827838827839,691.8315018315019,0.099426,0.124817,0.987732,1.114044,-0.695343,0.635529,1647179.487179,158130842.490842,113324981.684982,83.946388,1,2,1,1,2,60.000000
2025-05-02 15:15:53.177,,,,,,,,,,,,,,,,,,,,,,,,,,,,,,,,,,,,,,,,,,/muse/elements/blink
2025-05-02 15:15:53.547,0.7665339904393732,0.4336506891353896,0,0.9609157113281537,0.2712015548773659,0.1709598864656793,0,0.7154284094266029,0.5514737548396591,0.4653311457357656,0,0.4446322531146253,0.6944361599971185,0.7031067880957491,0,1.021298030468684,0.7087265945590612,0.367457615328988,0,0.9435038095163009,861.0622710622711,850.1831501831502,763.5531135531136,809.8901098901099,554.4322344322344,0.081787,0.123779,0.985535,1.256104,0.381317,0.643005,1643150.183150,157943882.783883,112603736.263736,83.946388,1,2,1,1,2,60.000000
2025-05-02 15:15:54.399,,,,,,,,,,,,,,,,,,,,,,,,,,,,,,,,,,,,,,,,,,/muse/elements/blink
2025-05-02 15:15:54.548,0.7665339904393732,0.4336506891353896,0,0.9609157113281537,0.2712015548773659,0.1709598864656793,0,0.7154284094266029,0.5514737548396591,0.4653311457357656,0,0.4446322531146253,0.6944361599971185,0.7031067880957491,0,1.021298030468684,0.7087265945590612,0.367457615328988,0,0.9435038095163009,817.5457875457876,891.6849816849817,1622.197802197802,861.4652014652015,700.2930402930403,0.093689,0.111023,0.961914,-4.702911,0.067291,-7.372131,1591575.091575,156988131.868132,113244395.604396,92.384575,1,2,1,1,2,60.000000
2025-05-02 15:15:54.590,,,,,,,,,,,,,,,,,,,,,,,,,,,,,,,,,,,,,,,,,,/muse/elements/blink
2025-05-02 15:15:54.938,,,,,,,,,,,,,,,,,,,,,,,,,,,,,,,,,,,,,,,,,,/muse/elements/blink
2025-05-02 15:15:55.026,,,,,,,,,,,,,,,,,,,,,,,,,,,,,,,,,,,,,,,,,,/muse/elements/jaw_clench
2025-05-02 15:15:55.113,,,,,,,,,,,,,,,,,,,,,,,,,,,,,,,,,,,,,,,,,,/muse/elements/blink
2025-05-02 15:15:55.396,,,,,,,,,,,,,,,,,,,,,,,,,,,,,,,,,,,,,,,,,,/muse/elements/blink
2025-05-02 15:15:55.548,0.7665339904393732,0.4336506891353896,0,0.9609157113281537,0.2712015548773659,0.1709598864656793,0,0.7154284094266029,0.5514737548396591,0.4653311457357656,0,0.4446322531146253,0.6944361599971185,0.7031067880957491,0,1.021298030468684,0.7087265945590612,0.367457615328988,0,0.9435038095163009,906.5934065934066,932.7838827838829,432.7472527472528,895.7142857142858,741.7948717948718,0.083008,0.159180,1.015015,2.841187,-0.957031,-0.687866,1587545.787546,156514285.714286,111997728.937729,92.384575,1,2,4,1,2,60.000000
2025-05-02 15:15:56.234,,,,,,,,,,,,,,,,,,,,,,,,,,,,,,,,,,,,,,,,,,/muse/elements/blink
2025-05-02 15:15:56.548,0.7665339904393732,0.4336506891353896,0,0.9609157113281537,0.2712015548773659,0.1709598864656793,0,0.7154284094266029,0.5514737548396591,0.4653311457357656,0,0.4446322531146253,0.6944361599971185,0.7031067880957491,0,1.021298030468684,0.7087265945590612,0.367457615328988,0,0.9435038095163009,864.2857142857143,678.1318681318681,0,828.8278388278388,618.0952380952381,0.035278,0.107666,0.997131,-4.426270,9.226379,4.373932,1571428.571429,155764835.164835,110792967.032967,87.374969,1,2,2,2,2,60.000000
2025-05-02 15:15:57.468,,,,,,,,,,,,,,,,,,,,,,,,,,,,,,,,,,,,,,,,,,/muse/elements/blink
2025-05-02 15:15:57.548,0.7665339904393732,0.4336506891353896,0,0.9609157113281537,0.2712015548773659,0.1709598864656793,0,0.7154284094266029,0.5514737548396591,0.4653311457357656,0,0.4446322531146253,0.6944361599971185,0.7031067880957491,0,1.021298030468684,0.7087265945590612,0.367457615328988,0,0.9435038095163009,902.5641025641025,911.8315018315019,891.2820512820513,894.1025641025641,653.1501831501831,0.133911,0.124634,0.989319,1.001892,-1.181335,0.097198,1590769.230769,156514285.714286,111841391.941392,86.036964,1,2,2,2,2,60.000000
2025-05-02 15:15:58.161,,,,,,,,,,,,,,,,,,,,,,,,,,,,,,,,,,,,,,,,,,/muse/elements/blink
2025-05-02 15:15:58.444,,,,,,,,,,,,,,,,,,,,,,,,,,,,,,,,,,,,,,,,,,/muse/elements/blink
2025-05-02 15:15:58.549,0.7665339904393732,0.4336506891353896,0,0.9609157113281537,0.2712015548773659,0.1709598864656793,0,0.7154284094266029,0.5514737548396591,0.4653311457357656,0,0.4446322531146253,0.6944361599971185,0.7031067880957491,0,1.021298030468684,0.7087265945590612,0.367457615328988,0,0.9435038095163009,828.4249084249085,882.014652014652,735.7509157509157,805.8608058608058,636.6300366300367,0.133118,0.129089,0.993652,0.104675,-1.891632,-3.738403,1589157.509158,156248351.648352,111025054.945055,86.036964,1,2,1,1,2,60.000000
2025-05-02 15:15:59.184,,,,,,,,,,,,,,,,,,,,,,,,,,,,,,,,,,,,,,,,,,/muse/elements/blink
2025-05-02 15:15:59.548,0.7665339904393732,0.4336506891353896,0,0.9609157113281537,0.2712015548773659,0.1709598864656793,0,0.7154284094266029,0.5514737548396591,0.4653311457357656,0,0.4446322531146253,0.6944361599971185,0.7031067880957491,0,1.021298030468684,0.7087265945590612,0.367457615328988,0,0.9435038095163009,862.2710622710623,821.1721611721612,810.6959706959707,844.9450549450549,504.8717948717949,0.068909,0.132141,0.987915,3.304749,-1.233673,-2.033691,1649597.069597,156719780.219780,111644761.904762,86.036964,1,2,1,1,2,60.000000
2025-05-02 15:16:00.356,,,,,,,,,,,,,,,,,,,,,,,,,,,,,,,,,,,,,,,,,,/muse/elements/blink
2025-05-02 15:16:00.548,0.7665339904393732,0.4336506891353896,0,0.9609157113281537,0.2712015548773659,0.1709598864656793,0,0.7154284094266029,0.5514737548396591,0.4653311457357656,0,0.4446322531146253,0.6944361599971185,0.7031067880957491,0,1.021298030468684,0.7087265945590612,0.367457615328988,0,0.9435038095163009,821.1721611721612,845.7509157509157,703.5164835164835,844.5421245421246,1448.131868131868,0.093018,0.150757,1.003296,1.151428,-2.803802,0.463562,1647985.347985,156656117.216117,110962197.802198,88.451019,1,2,1,1,2,60.000000
2025-05-02 15:16:01.553,0.7665339904393732,0.4336506891353896,0,0.9609157113281537,0.2712015548773659,0.1709598864656793,0,0.7154284094266029,0.5514737548396591,0.4653311457357656,0,0.4446322531146253,0.6944361599971185,0.7031067880957491,0,1.021298030468684,0.7087265945590612,0.367457615328988,0,0.9435038095163009,858.6446886446887,837.6923076923077,733.3333333333334,824.7985347985348,647.1062271062272,0.077087,0.153198,0.994995,2.564545,-2.609406,-1.772003,1639926.739927,156490109.890110,110350549.450549,89.286293,1,2,1,1,2,60.000000
2025-05-02 15:16:02.346,,,,,,,,,,,,,,,,,,,,,,,,,,,,,,,,,,,,,,,,,,/muse/elements/blink
2025-05-02 15:16:02.547,0.7665339904393732,0.4336506891353896,0,0.3029877052039524,0.2712015548773659,0.1709598864656793,0,0.7234719476663266,0.5514737548396591,0.4653311457357656,0,0.7455296440123651,0.6944361599971185,0.7031067880957491,0,0.6817325404954646,0.7087265945590612,0.367457615328988,0,0.3074626938292249,838.0952380952381,759.92673992674,810.2930402930403,821.5750915750916,574.5787545787546,0.076111,0.141174,0.993958,1.069183,-2.205658,-0.755157,1730183.150183,156245128.205128,110406153.846154,100.491859,1,1,1,1,1,60.000000
2025-05-02 15:16:03.548,0.7665339904393732,0.4336506891353896,0,0.3029877052039524,0.2712015548773659,0.1709598864656793,0,0.7234719476663266,0.5514737548396591,0.4653311457357656,0,0.7455296440123651,0.6944361599971185,0.7031067880957491,0,0.6817325404954646,0.7087265945590612,0.367457615328988,0,0.3074626938292249,778.4615384615385,760.7326007326008,700.6959706959707,806.2637362637363,1400.18315018315,0.101990,0.146179,0.990845,1.039276,-2.183228,-0.590668,1755164.835165,156490109.890110,111017802.197802,100.491859,1,1,1,1,1,60.000000
2025-05-02 15:16:03.926,,,,,,,,,,,,,,,,,,,,,,,,,,,,,,,,,,,,,,,,,,/muse/elements/blink
2025-05-02 15:16:04.553,0.7665339904393732,0.4336506891353896,0,0.3029877052039524,0.2712015548773659,0.1709598864656793,0,0.7234719476663266,0.5514737548396591,0.4653311457357656,0,0.7455296440123651,0.6944361599971185,0.7031067880957491,0,0.6817325404954646,0.7087265945590612,0.367457615328988,0,0.3074626938292249,838.0952380952381,811.5018315018315,736.959706959707,799.8168498168499,1074.615384615385,0.099548,0.153198,0.991699,0.164490,-0.463562,0.635529,1745494.505495,156077509.157509,111050036.630037,99.247551,1,2,1,1,2,60.000000
2025-05-02 15:16:05.548,0.3304777835939522,0.4336506891353896,0,0.3029877052039524,0.3282007763513939,0.1709598864656793,0,0.7234719476663266,0.4718360333364465,0.4653311457357656,0,0.7455296440123651,0.7612740929851103,0.7031067880957491,0,0.6817325404954646,0.1930790226442071,0.367457615328988,0,0.3074626938292249,800.2197802197802,805.4578754578755,761.1355311355312,804.6520146520147,579.8168498168499,0.079468,0.157776,0.995605,-1.151428,-0.112152,0.388794,1721318.681319,156313626.373626,111715677.655678,88.811028,1,2,1,1,2,60.000000
2025-05-02 15:16:05.984,,,,,,,,,,,,,,,,,,,,,,,,,,,,,,,,,,,,,,,,,,/muse/elements/blink
2025-05-02 15:16:06.548,0.3033904310629454,0.4336506891353896,1.072785532092046,0.3029877052039524,0.324294599910617,0.1709598864656793,1.066108696608971,0.7234719476663266,0.4718360333364465,0.4653311457357656,1.178798856187745,0.7455296440123651,0.723251059514324,0.7031067880957491,1.102703889978159,0.6817325404954646,0.245479423256003,0.367457615328988,0.6285518986060293,0.3074626938292249,1621.794871794872,797.8021978021978,805.4578754578755,1155.201465201465,1631.465201465202,0.091370,0.152527,0.992737,0.299072,-1.009369,-1.428070,1684249.084249,156540879.120879,111921978.021978,88.811028,1,1,1,1,1,60.000000
2025-05-02 15:16:06.682,,,,,,,,,,,,,,,,,,,,,,,,,,,,,,,,,,,,,,,,,,/muse/elements/blink
2025-05-02 15:16:06.965,,,,,,,,,,,,,,,,,,,,,,,,,,,,,,,,,,,,,,,,,,/muse/elements/blink
2025-05-02 15:16:07.205,,,,,,,,,,,,,,,,,,,,,,,,,,,,,,,,,,,,,,,,,,/muse/elements/blink
2025-05-02 15:16:07.548,0.2577381389874917,0.4336506891353896,1.076567988760973,0.3029877052039524,0.3285510506886916,0.1709598864656793,0.9819034108235191,0.7234719476663266,0.4395057602887418,0.4653311457357656,1.167534332614373,0.7455296440123651,0.7070780469556374,0.7031067880957491,0.9884857758564953,0.6817325404954646,0.2548808910441261,0.367457615328988,0.6283346538328761,0.3074626938292249,874.3589743589744,813.919413919414,806.6666666666667,822.7838827838829,877.5824175824176,0.080872,0.145813,0.992249,-0.029907,-1.816864,-0.179443,1297435.897436,156724615.384615,111850256.410256,88.811028,1,4,1,1,1,60.000000
2025-05-02 15:16:08.548,0.2577381389874917,0.4336506891353896,1.076567988760973,0.3029877052039524,0.3285510506886916,0.1709598864656793,0.9819034108235191,0.7234719476663266,0.4395057602887418,0.4653311457357656,1.167534332614373,0.7455296440123651,0.7070780469556374,0.7031067880957491,0.9884857758564953,0.6817325404954646,0.2548808910441261,0.367457615328988,0.6283346538328761,0.3074626938292249,823.992673992674,779.6703296703297,764.7619047619048,807.8754578754579,608.021978021978,0.101624,0.152405,0.990234,0.598145,-2.706604,1.143951,1049230.769231,157111428.571429,112033186.813187,88.811028,1,2,1,1,2,60.000000
2025-05-02 15:16:09.555,0.7607142235886795,0.4336506891353896,1.076567988760973,0.8573057620785346,0.8066768564298175,0.1709598864656793,0.9819034108235191,0.6836424507867047,0.7923883083810465,0.4653311457357656,1.167534332614373,0.8064302449849903,0.7953241067437857,0.7031067880957491,0.9884857758564953,0.5760831902687252,0.5817270995734067,0.367457615328988,0.6283346538328761,0.3958975522494346,863.4798534798535,895.3113553113553,741.3919413919414,845.3479853479854,646.3003663003664,0.092896,0.147217,0.991455,0.687866,-2.190704,-1.345825,1087912.087912,157395897.435897,112219340.659341,88.811028,1,1,1,1,1,60.000000
2025-05-02 15:16:10.560,1.116646357952758,0.4336506891353896,1.076567988760973,0.7583924147359289,0.6301782862098257,0.1709598864656793,0.9819034108235191,0.5243829806748789,0.9505820349325623,0.4653311457357656,1.167534332614373,0.5032227711860623,0.8186672873271205,0.7031067880957491,0.9884857758564953,0.5847178107430803,0.4734779072129982,0.367457615328988,0.6283346538328761,0.3630193869076705,841.7216117216118,840.9157509157509,727.2893772893773,780.8791208791209,712.3809523809524,0.107910,0.151550,0.992676,-0.628052,-6.729126,-3.185120,1116923.076923,157329816.849817,112164542.124542,88.811028,1,1,1,1,1,60.000000
2025-05-02 15:16:11.558,1.417743934993862,0.4336506891353896,1.076567988760973,1.062541993381415,0.5834878579347721,0.1709598864656793,0.9819034108235191,0.9932457522141321,0.8620927827987171,0.4653311457357656,1.167534332614373,0.9921076701187791,0.797487685476222,0.7031067880957491,0.9884857758564953,0.557709782364554,0.3734078566122067,0.367457615328988,0.6283346538328761,0.2871798480307614,841.7216117216118,819.96336996337,795.7875457875458,819.5604395604396,583.040293040293,0.115906,0.168152,0.984253,-0.560760,-1.764526,-0.171967,1223296.703297,157478095.238095,112580366.300366,88.811028,1,1,1,1,1,60.000000
2025-05-02 15:16:12.177,,,,,,,,,,,,,,,,,,,,,,,,,,,,,,,,,,,,,,,,,,/muse/elements/blink
2025-05-02 15:16:12.562,1.585768852865916,0.4336506891353896,1.076567988760973,1.385569542745924,0.561027163579835,0.1709598864656793,0.9819034108235191,1.428724546221201,0.8015195858080616,0.4653311457357656,1.167534332614373,1.044293724606599,0.8506766542792787,0.7031067880957491,0.9884857758564953,0.7778250792787995,0.3374355651448521,0.367457615328988,0.6283346538328761,0.2487133955071933,786.9230769230769,901.3553113553114,822.3809523809524,804.6520146520147,720.4395604395604,0.100769,0.151978,0.986023,-0.306549,-1.368256,0.949554,1222490.842491,157435384.615385,112634358.974359,88.811028,1,1,1,1,1,60.000000
2025-05-02 15:16:12.982,,,,,,,,,,,,,,,,,,,,,,,,,,,,,,,,,,,,,,,,,,/muse/elements/blink
2025-05-02 15:16:13.403,,,,,,,,,,,,,,,,,,,,,,,,,,,,,,,,,,,,,,,,,,/muse/elements/blink
2025-05-02 15:16:13.548,1.585768852865916,0.4336506891353896,1.076567988760973,1.474582285729856,0.561027163579835,0.1709598864656793,0.9819034108235191,1.561264491573406,0.8015195858080616,0.4653311457357656,1.167534332614373,1.018107611640822,0.8506766542792787,0.7031067880957491,0.9884857758564953,0.9315439725979486,0.3374355651448521,0.367457615328988,0.6283346538328761,0.3041251555660238,836.0805860805862,762.3443223443223,881.6117216117217,797.8021978021978,655.9706959706959,0.113831,0.152710,0.985229,0.448608,-1.308441,1.592560,1226520.146520,157266153.846154,112606959.706960,98.194832,1,1,1,1,1,60.000000
2025-05-02 15:16:14.427,,,,,,,,,,,,,,,,,,,,,,,,,,,,,,,,,,,,,,,,,,/muse/elements/blink
2025-05-02 15:16:14.548,1.585768852865916,0.4336506891353896,1.076567988760973,1.474582285729856,0.561027163579835,0.1709598864656793,0.9819034108235191,1.561264491573406,0.8015195858080616,0.4653311457357656,1.167534332614373,1.018107611640822,0.8506766542792787,0.7031067880957491,0.9884857758564953,0.9315439725979486,0.3374355651448521,0.367457615328988,0.6283346538328761,0.3041251555660238,936.4102564102565,795.7875457875458,502.051282051282,922.7106227106227,576.1904761904763,0.110901,0.159668,0.980225,1.577606,-3.200073,0.807495,1230549.450549,157615091.575092,112701245.421245,99.057785,1,2,1,1,2,60.000000
2025-05-02 15:16:14.798,,,,,,,,,,,,,,,,,,,,,,,,,,,,,,,,,,,,,,,,,,/muse/elements/blink
2025-05-02 15:16:15.548,1.585768852865916,0.4336506891353896,1.076567988760973,1.474582285729856,0.561027163579835,0.1709598864656793,0.9819034108235191,1.561264491573406,0.8015195858080616,0.4653311457357656,1.167534332614373,1.018107611640822,0.8506766542792787,0.7031067880957491,0.9884857758564953,0.9315439725979486,0.3374355651448521,0.367457615328988,0.6283346538328761,0.3041251555660238,635.8241758241759,753.4798534798535,504.4688644688645,646.3003663003664,683.7728937728938,0.112244,0.146362,0.994202,2.280426,-1.390686,0.859833,1249890.109890,158163076.923077,113143663.003663,98.876762,1,2,1,1,2,60.000000
2025-05-02 15:16:15.925,,,,,,,,,,,,,,,,,,,,,,,,,,,,,,,,,,,,,,,,,,/muse/elements/blink
2025-05-02 15:16:16.556,1.585768852865916,0.4336506891353896,1.076567988760973,1.474582285729856,0.561027163579835,0.1709598864656793,0.9819034108235191,1.561264491573406,0.8015195858080616,0.4653311457357656,1.167534332614373,1.018107611640822,0.8506766542792787,0.7031067880957491,0.9884857758564953,0.9315439725979486,0.3374355651448521,0.367457615328988,0.6283346538328761,0.3041251555660238,689.8168498168499,714.7985347985348,627.3626373626374,678.1318681318681,753.4798534798535,0.097107,0.163757,1.044800,-4.665527,-15.491943,4.254303,1227326.007326,156860000.000000,111106446.886447,90.854820,1,2,1,1,2,60.000000
2025-05-02 15:16:17.548,1.585768852865916,0.4336506891353896,1.076567988760973,1.474582285729856,0.561027163579835,0.1709598864656793,0.9819034108235191,1.561264491573406,0.8015195858080616,0.4653311457357656,1.167534332614373,1.018107611640822,0.8506766542792787,0.7031067880957491,0.9884857758564953,0.9315439725979486,0.3374355651448521,0.367457615328988,0.6283346538328761,0.3041251555660238,822.3809523809524,746.2271062271062,704.3223443223443,817.1428571428571,589.8901098901099,0.122314,0.153015,1.005310,3.783264,-1.428070,1.390686,1223296.703297,157168644.688645,112237069.597070,90.854820,1,2,1,1,2,60.000000
2025-05-02 15:16:17.562,,,,,,,,,,,,,,,,,,,,,,,,,,,,,,,,,,,,,,,,,,/muse/elements/blink
2025-05-02 15:16:18.556,1.585768852865916,0.4336506891353896,1.076567988760973,1.474582285729856,0.561027163579835,0.1709598864656793,0.9819034108235191,1.561264491573406,0.8015195858080616,0.4653311457357656,1.167534332614373,1.018107611640822,0.8506766542792787,0.7031067880957491,0.9884857758564953,0.9315439725979486,0.3374355651448521,0.367457615328988,0.6283346538328761,0.3041251555660238,787.7289377289378,768.3882783882784,801.8315018315019,813.919413919414,690.6227106227107,0.138794,0.149780,0.992004,1.353302,-2.340240,0.426178,1223296.703297,156737509.157509,112306373.626374,90.854820,1,2,1,1,2,60.000000
2025-05-02 15:16:19.154,,,,,,,,,,,,,,,,,,,,,,,,,,,,,,,,,,,,,,,,,,/muse/elements/blink
2025-05-02 15:16:19.547,1.585768852865916,0.4336506891353896,1.076567988760973,1.474582285729856,0.561027163579835,0.1709598864656793,0.9819034108235191,1.561264491573406,0.8015195858080616,0.4653311457357656,1.167534332614373,1.018107611640822,0.8506766542792787,0.7031067880957491,0.9884857758564953,0.9315439725979486,0.3374355651448521,0.367457615328988,0.6283346538328761,0.3041251555660238,846.5567765567765,855.4212454212454,726.4835164835165,811.9047619047619,605.6043956043957,0.112305,0.130432,0.982483,0.471039,-1.577606,0.545807,1208791.208791,155984835.164835,111979194.139194,90.854820,1,2,1,1,2,60.000000
2025-05-02 15:16:20.089,,,,,,,,,,,,,,,,,,,,,,,,,,,,,,,,,,,,,,,,,,/muse/elements/blink
2025-05-02 15:16:20.550,1.585768852865916,0.4336506891353896,1.076567988760973,1.474582285729856,0.561027163579835,0.1709598864656793,0.9819034108235191,1.561264491573406,0.8015195858080616,0.4653311457357656,1.167534332614373,1.018107611640822,0.8506766542792787,0.7031067880957491,0.9884857758564953,0.9315439725979486,0.3374355651448521,0.367457615328988,0.6283346538328761,0.3041251555660238,849.3772893772895,793.7728937728938,635.8241758241759,858.6446886446887,571.3553113553114,0.110596,0.129578,0.991394,-0.904694,-4.366455,-4.717865,1204761.904762,155473919.413919,111677802.197802,90.854820,1,2,1,1,2,60.000000
2025-05-02 15:16:21.556,1.585768852865916,0.4336506891353896,1.076567988760973,1.474582285729856,0.561027163579835,0.1709598864656793,0.9819034108235191,1.561264491573406,0.8015195858080616,0.4653311457357656,1.167534332614373,1.018107611640822,0.8506766542792787,0.7031067880957491,0.9884857758564953,0.9315439725979486,0.3374355651448521,0.367457615328988,0.6283346538328761,0.3041251555660238,808.6813186813187,803.8461538461539,780.4761904761905,817.1428571428571,846.1538461538462,0.122681,0.146790,0.987854,-0.276642,0.119629,0.433655,1197509.157509,155592380.952381,111919560.439560,90.546844,1,2,1,1,2,60.000000
2025-05-02 15:16:22.216,,,,,,,,,,,,,,,,,,,,,,,,,,,,,,,,,,,,,,,,,,/muse/elements/blink
2025-05-02 15:16:22.551,1.585768852865916,0.4336506891353896,1.076567988760973,1.474582285729856,0.561027163579835,0.1709598864656793,0.9819034108235191,1.561264491573406,0.8015195858080616,0.4653311457357656,1.167534332614373,1.018107611640822,0.8506766542792787,0.7031067880957491,0.9884857758564953,0.9315439725979486,0.3374355651448521,0.367457615328988,0.6283346538328761,0.3041251555660238,844.5421245421246,839.7069597069598,795.7875457875458,782.893772893773,700.6959706959707,0.116882,0.138733,0.989868,-0.007477,-0.740204,0.874786,1193479.853480,155937289.377289,112163736.263736,88.289352,1,2,1,1,2,60.000000
2025-05-02 15:16:23.548,1.585768852865916,0.4336506891353896,1.076567988760973,1.474582285729856,0.561027163579835,0.1709598864656793,0.9819034108235191,1.561264491573406,0.8015195858080616,0.4653311457357656,1.167534332614373,1.018107611640822,0.8506766542792787,0.7031067880957491,0.9884857758564953,0.9315439725979486,0.3374355651448521,0.367457615328988,0.6283346538328761,0.3041251555660238,679.3406593406594,863.0769230769231,819.5604395604396,764.7619047619048,503.2600732600733,0.112732,0.124268,0.981384,-0.224304,-2.280426,-2.347717,1184615.384615,156415164.835165,112353919.413919,86.009605,1,2,1,1,2,60.000000
2025-05-02 15:16:24.548,1.585768852865916,0.4336506891353896,1.076567988760973,1.474582285729856,0.561027163579835,0.1709598864656793,0.9819034108235191,1.561264491573406,0.8015195858080616,0.4653311457357656,1.167534332614373,1.018107611640822,0.8506766542792787,0.7031067880957491,0.9884857758564953,0.9315439725979486,0.3374355651448521,0.367457615328988,0.6283346538328761,0.3041251555660238,1047.216117216117,790.952380952381,797.8021978021978,1010.952380952381,852.1978021978023,0.116394,0.131348,0.992249,0.829926,-0.672913,-0.194397,1203150.183150,156822124.542125,112921245.421245,87.411293,1,2,1,1,2,60.000000
2025-05-02 15:16:24.551,,,,,,,,,,,,,,,,,,,,,,,,,,,,,,,,,,,,,,,,,,/muse/elements/blink
2025-05-02 15:16:24.876,,,,,,,,,,,,,,,,,,,,,,,,,,,,,,,,,,,,,,,,,,/muse/elements/blink
2025-05-02 15:16:25.161,,,,,,,,,,,,,,,,,,,,,,,,,,,,,,,,,,,,,,,,,,/muse/elements/blink
2025-05-02 15:16:25.548,1.585768852865916,0.4336506891353896,1.076567988760973,1.474582285729856,0.561027163579835,0.1709598864656793,0.9819034108235191,1.561264491573406,0.8015195858080616,0.4653311457357656,1.167534332614373,1.018107611640822,0.8506766542792787,0.7031067880957491,0.9884857758564953,0.9315439725979486,0.3374355651448521,0.367457615328988,0.6283346538328761,0.3041251555660238,811.5018315018315,824.3956043956044,779.2673992673992,793.3699633699634,504.8717948717949,0.116760,0.139587,0.991882,0.553284,-1.585083,-0.792542,1248278.388278,157453919.413919,114093772.893773,87.610107,1,2,1,1,2,60.000000
2025-05-02 15:16:26.376,,,,,,,,,,,,,,,,,,,,,,,,,,,,,,,,,,,,,,,,,,/muse/elements/blink
2025-05-02 15:16:26.548,1.585768852865916,0.4336506891353896,1.076567988760973,1.474582285729856,0.561027163579835,0.1709598864656793,0.9819034108235191,1.561264491573406,0.8015195858080616,0.4653311457357656,1.167534332614373,1.018107611640822,0.8506766542792787,0.7031067880957491,0.9884857758564953,0.9315439725979486,0.3374355651448521,0.367457615328988,0.6283346538328761,0.3041251555660238,832.4542124542124,858.6446886446887,745.8241758241759,802.2344322344322,376.3369963369963,0.104370,0.146240,0.995728,0.942078,-1.846771,-0.097198,1261172.161172,156700439.560440,112995384.615385,83.937126,1,2,1,1,2,60.000000
2025-05-02 15:16:27.548,1.585768852865916,0.4336506891353896,1.076567988760973,1.474582285729856,0.561027163579835,0.1709598864656793,0.9819034108235191,1.561264491573406,0.8015195858080616,0.4653311457357656,1.167534332614373,1.018107611640822,0.8506766542792787,0.7031067880957491,0.9884857758564953,0.9315439725979486,0.3374355651448521,0.367457615328988,0.6283346538328761,0.3041251555660238,818.3516483516484,775.2380952380953,838.4981684981685,849.3772893772895,613.2600732600732,0.102600,0.139526,0.989502,0.613098,-1.375732,-0.366364,1258754.578755,156902710.622711,113360439.560440,83.937126,1,2,1,1,2,60.000000
2025-05-02 15:16:28.549,0.6709951202205362,0.4336506891353896,1.076567988760973,1.474582285729856,0.2405641441692995,0.1709598864656793,0.9819034108235191,1.561264491573406,0.3842271422912746,0.4653311457357656,1.167534332614373,1.018107611640822,0.5111303953861505,0.7031067880957491,0.9884857758564953,0.9315439725979486,0.05230129548806798,0.367457615328988,0.6283346538328761,0.3041251555660238,812.3076923076924,788.5347985347986,858.2417582417582,779.6703296703297,633.0036630036631,0.101074,0.139587,0.987976,0.949554,-1.457977,-0.403748,1261978.021978,156973626.373626,113322564.102564,83.937126,1,1,1,1,1,60.000000
2025-05-02 15:16:29.547,0.5877436026272854,0.4336506891353896,1.076567988760973,1.089147195296305,0.09390283658962452,0.1709598864656793,0.9819034108235191,0.4173140341795347,0.3396533588358349,0.4653311457357656,1.167534332614373,0.4718996941906365,0.6699030743764572,0.7031067880957491,0.9884857758564953,0.5328440044600088,0.2546407309766952,0.367457615328988,0.6283346538328761,0.08831102582371358,800.6227106227107,820.3663003663004,832.0512820512821,793.3699633699634,609.2307692307693,0.105286,0.143982,0.993958,0.179443,-1.300964,-0.186920,1266007.326007,157019560.439560,113229890.109890,79.274429,1,1,1,1,1,60.000000
2025-05-02 15:16:30.548,0.4759907411854464,0.4336506891353896,1.076567988760973,1.096530512692652,0.5104085584225564,0.1709598864656793,0.9819034108235191,0.5615556617894382,1.233669323344413,0.4653311457357656,1.167534332614373,0.7809400570676571,0.6725860190253542,0.7031067880957491,0.9884857758564953,0.5082500346635129,0.2811634046045935,0.367457615328988,0.6283346538328761,0.1149776996135988,701.9047619047619,840.9157509157509,761.941391941392,731.7216117216118,856.2271062271062,0.108154,0.143372,0.989624,1.398163,-1.181335,0.052338,1269230.769231,157511941.391941,113373333.333333,81.430656,1,1,1,1,1,60.000000
2025-05-02 15:16:30.640,,,,,,,,,,,,,,,,,,,,,,,,,,,,,,,,,,,,,,,,,,/muse/elements/blink
2025-05-02 15:16:31.551,0.6340437494526663,0.4336506891353896,1.076567988760973,0.8383686270820254,0.9076478304319956,0.1709598864656793,0.9819034108235191,0.6813892360288594,1.233669323344413,0.4653311457357656,1.167534332614373,0.772665612247127,0.7858625570410219,0.7031067880957491,0.9884857758564953,0.5303435190523552,0.3125849894775058,0.367457615328988,0.6283346538328761,0.1307216025718009,826.8131868131868,824.3956043956044,834.4688644688645,786.9230769230769,487.1428571428572,0.100586,0.140137,0.994751,-0.284119,-1.076660,0.127106,1266813.186813,157633626.373626,113254871.794872,81.959488,1,1,1,1,1,60.000000
2025-05-02 15:16:32.548,0.7086466978512956,0.4336506891353896,1.05167513116316,0.7564564610230239,0.9735981932984922,0.1709598864656793,1.164419164392622,0.7102691735919268,1.233669323344413,0.4653311457357656,0.327044094600083,0.7678646495636846,0.8317379318813626,0.7031067880957491,0.5436773670722637,0.548607579474075,0.3382669270095916,0.367457615328988,0.1799413871890974,0.1225853387277121,837.2893772893773,846.959706959707,805.4578754578755,830.0366300366301,660.8058608058608,0.102356,0.142151,0.987305,-0.052338,-0.680389,-0.403748,1264395.604396,157525641.025641,112949450.549451,81.959488,1,1,1,1,1,60.000000
2025-05-02 15:16:33.547,0.7086466978512956,0.4336506891353896,1.033149214785987,0.7564564610230239,0.9735981932984922,0.1709598864656793,1.127525750013772,0.7102691735919268,1.233669323344413,0.4653311457357656,0.354349675372964,0.7678646495636846,0.8317379318813626,0.7031067880957491,0.5269956111169467,0.548607579474075,0.3382669270095916,0.367457615328988,0.1868095345731563,0.1225853387277121,819.5604395604396,846.5567765567765,880.8058608058608,844.1391941391942,638.2417582417582,0.088806,0.145752,0.994751,1.697235,-0.044861,1.091614,1261978.021978,157345934.065934,112723809.523810,81.959488,1,2,1,1,2,60.000000
2025-05-02 15:16:34.550,0.7086466978512956,0.4336506891353896,1.031753982595139,0.7564564610230239,0.9735981932984922,0.1709598864656793,1.134903340086507,0.7102691735919268,1.233669323344413,0.4653311457357656,0.3139442086415857,0.7678646495636846,0.8317379318813626,0.7031067880957491,0.4961621395798599,0.548607579474075,0.3382669270095916,0.367457615328988,0.1968314190774801,0.1225853387277121,847.3626373626374,756.3003663003664,751.0622710622711,799.0109890109891,657.985347985348,0.092529,0.136169,0.994446,1.203766,-1.943970,-0.059814,1260366.300366,157195238.095238,112653699.633700,81.857834,1,2,1,1,2,60.000000
2025-05-02 15:16:34.624,,,,,,,,,,,,,,,,,,,,,,,,,,,,,,,,,,,,,,,,,,/muse/elements/blink
2025-05-02 15:16:35.555,0.7086466978512956,0.4336506891353896,1.031753982595139,0.7564564610230239,0.9735981932984922,0.1709598864656793,1.134903340086507,0.7102691735919268,1.233669323344413,0.4653311457357656,0.3139442086415857,0.7678646495636846,0.8317379318813626,0.7031067880957491,0.4961621395798599,0.548607579474075,0.3382669270095916,0.367457615328988,0.1968314190774801,0.1225853387277121,749.047619047619,784.9084249084249,808.6813186813187,769.5970695970697,707.948717948718,0.090210,0.138367,0.989807,0.029907,-1.353302,0.112152,1252307.692308,156651282.051282,112553772.893773,80.236649,1,2,1,1,2,60.000000
2025-05-02 15:16:36.220,,,,,,,,,,,,,,,,,,,,,,,,,,,,,,,,,,,,,,,,,,/muse/elements/blink
2025-05-02 15:16:36.547,0.7086466978512956,0.4336506891353896,1.031753982595139,0.7564564610230239,0.9735981932984922,0.1709598864656793,1.134903340086507,0.7102691735919268,1.233669323344413,0.4653311457357656,0.3139442086415857,0.7678646495636846,0.8317379318813626,0.7031067880957491,0.4961621395798599,0.548607579474075,0.3382669270095916,0.367457615328988,0.1968314190774801,0.1225853387277121,855.0183150183151,820.3663003663004,760.3296703296703,887.2527472527473,884.0293040293041,0.089600,0.140198,0.992615,0.201874,-1.659851,-0.104675,1248278.388278,156481245.421245,112747985.347985,80.565002,1,2,1,1,2,60.000000
2025-05-02 15:16:37.559,0.7086466978512956,0.4336506891353896,1.031753982595139,0.7564564610230239,0.9735981932984922,0.1709598864656793,1.134903340086507,0.7102691735919268,1.233669323344413,0.4653311457357656,0.3139442086415857,0.7678646495636846,0.8317379318813626,0.7031067880957491,0.4961621395798599,0.548607579474075,0.3382669270095916,0.367457615328988,0.1968314190774801,0.1225853387277121,863.0769230769231,816.7399267399268,760.7326007326008,836.0805860805862,805.0549450549451,0.091003,0.137573,0.992920,1.779480,-0.620575,-0.074768,1253919.413919,156494139.194139,112951868.131868,83.915977,1,2,1,1,2,60.000000
2025-05-02 15:16:37.763,,,,,,,,,,,,,,,,,,,,,,,,,,,,,,,,,,,,,,,,,,/muse/elements/blink
2025-05-02 15:16:38.480,,,,,,,,,,,,,,,,,,,,,,,,,,,,,,,,,,,,,,,,,,/muse/elements/blink
2025-05-02 15:16:38.547,0.7086466978512956,0.4336506891353896,1.031753982595139,1.454965630996897,0.9735981932984922,0.1709598864656793,1.134903340086507,1.250153881791492,1.233669323344413,0.4653311457357656,0.3139442086415857,1.329786033481429,0.8317379318813626,0.7031067880957491,0.4961621395798599,0.9924180301835637,0.3382669270095916,0.367457615328988,0.1968314190774801,0.2836766823877381,815.1282051282052,812.7106227106227,791.7582417582418,817.1428571428571,569.3406593406594,0.094971,0.147095,0.993530,0.500946,-2.183228,0.381317,1258754.578755,156682710.622711,113138827.838828,82.920204,1,1,1,1,1,60.000000
2025-05-02 15:16:38.899,,,,,,,,,,,,,,,,,,,,,,,,,,,,,,,,,,,,,,,,,,/muse/elements/blink
2025-05-02 15:16:39.547,0.7086466978512956,0.4336506891353896,1.031753982595139,1.454965630996897,0.9735981932984922,0.1709598864656793,1.134903340086507,1.250153881791492,1.233669323344413,0.4653311457357656,0.3139442086415857,1.329786033481429,0.8317379318813626,0.7031067880957491,0.4961621395798599,0.9924180301835637,0.3382669270095916,0.367457615328988,0.1968314190774801,0.2836766823877381,714.3956043956044,807.8754578754579,786.5201465201466,745.4212454212454,927.5457875457876,0.098572,0.135315,0.992249,0.725250,-2.355194,0.523376,1246666.666667,156818095.238095,113013113.553114,81.774780,1,1,1,1,1,60.000000
2025-05-02 15:16:40.547,0.7086466978512956,0.4336506891353896,1.31897227692207,1.454965630996897,0.9735981932984922,0.1709598864656793,0.974228318649361,1.250153881791492,1.233669323344413,0.4653311457357656,1.0974931086964,1.329786033481429,0.8317379318813626,0.7031067880957491,0.8365769705401296,0.9924180301835637,0.3382669270095916,0.367457615328988,0.7040927360748971,0.2836766823877381,820.3663003663004,806.2637362637363,807.4725274725275,770.4029304029305,567.7289377289377,0.087524,0.134094,0.992920,0.269165,-1.375732,-0.082245,1253919.413919,156992967.032967,112984102.564103,85.944778,1,1,1,1,1,60.000000
2025-05-02 15:16:41.547,0.8533289540816122,0.4336506891353896,1.357019394825926,0.7323129676845869,0.8718540070343899,0.1709598864656793,1.022420187594485,0.7461415308730137,0.9062599424592424,0.4653311457357656,1.022111751469775,0.6618941658140387,0.4319934333150215,0.7031067880957491,0.80228312390005,0.5391032740349475,0.3271950086746288,0.367457615328988,0.4864044194982521,0.1666589473871473,808.6813186813187,854.2124542124542,822.7838827838829,808.2783882783883,705.1282051282052,0.085876,0.133240,0.999573,-0.097198,-1.046753,-0.142059,1246666.666667,157150915.750916,112903516.483516,85.564789,1,1,1,1,1,60.000000
2025-05-02 15:16:42.447,,,,,,,,,,,,,,,,,,,,,,,,,,,,,,,,,,,,,,,,,,/muse/elements/blink
2025-05-02 15:16:42.548,0.7845749172334298,0.9863536542443512,1.357019394825926,0.6997943616517315,0.7922602360670985,0.4254646685935372,1.022420187594485,0.6122690587096487,0.9929008929614145,0.5954803761256877,1.022111751469775,0.8202653791648516,0.5904039359092632,0.8712684520165693,0.80228312390005,0.7282475046219491,0.356420933712658,0.7654285157353373,0.4864044194982521,0.1353152491057214,811.5018315018315,840.1098901098901,793.7728937728938,842.1245421245421,637.8388278388279,0.086121,0.131470,0.988953,0.702820,-1.487885,0.224304,1243443.223443,156953479.853480,112624688.644689,85.917374,1,1,1,1,1,60.000000
2025-05-02 15:16:43.548,0.5795249060200615,1.055773144446856,1.357019394825926,0.6988583898775462,0.5569099054803774,0.4701901228937667,1.022420187594485,0.3394594938400908,0.8463101569703028,0.4585600031333228,1.022111751469775,0.7300681868604455,0.7927940186895354,0.8578832977138053,0.80228312390005,0.8665710937544834,0.4130293760378663,0.8270264854836307,0.4864044194982521,0.1636011018532486,853.4065934065934,858.6446886446887,843.3333333333334,824.3956043956044,587.4725274725275,0.096558,0.131226,0.998962,0.411224,-1.749573,0.104675,1269230.769231,157141245.421245,112705274.725275,86.968575,1,1,1,1,1,60.000000
2025-05-02 15:16:44.547,0.7476699760445371,1.026353399193968,1.114477352363185,0.7044602892358368,0.2815023973495914,0.3929492092853985,0.4715022154696192,0.2844952745936072,0.5561154478349251,0.6161938788234951,0.8633042396406166,0.6065315774247079,0.7396791304555764,0.8411744577148511,0.592283141206238,0.3540929179105439,0.3186807326712685,0.7447190109220944,0.1503292193884361,0.04935534529514738,824.7985347985348,886.0439560439561,828.8278388278388,820.7692307692308,661.6117216117216,0.091553,0.138123,0.990479,0.844879,-2.018738,0.142059,1270036.630037,157041318.681319,112445787.545788,84.345085,1,1,1,1,1,60.000000
2025-05-02 15:16:45.359,,,,,,,,,,,,,,,,,,,,,,,,,,,,,,,,,,,,,,,,,,/muse/elements/blink
2025-05-02 15:16:45.547,0.4237345193180372,1.099519679235901,1.138089840797245,0.6231373031459219,0.2666758824935987,0.5766295764818016,0.6978660005721909,0.2428818472340029,0.4674146911608353,0.6258972290568052,0.9819960674540209,0.6234342915681712,0.6686539319661357,0.6905216161674124,0.5824095439754824,0.3478479158641203,0.1681400968992051,0.4239071205149884,0.152706804497028,-0.05865726653726248,818.3516483516484,807.0695970695971,836.8864468864469,841.3186813186813,749.4505494505495,0.084900,0.135498,0.992737,0.373840,-1.659851,-0.044861,1273260.073260,157009890.109890,112439340.659341,84.772133,1,1,1,1,1,60.000000
2025-05-02 15:16:46.547,-0.01134809211792253,1.187676684359531,0.934902318807299,0.5082020620242353,0.1754850561239346,0.6801336700614558,0.8116816607140372,0.2521400868092641,0.2771565215160229,0.4206033250146963,0.9362760802193028,0.1551147483226253,0.5199027369374953,0.6382850236621177,0.5947081657260673,0.3870690738508254,0.2093226566225265,0.4091533799416267,0.1386777261960827,-0.2023791366426632,848.1684981684982,858.6446886446887,840.9157509157509,811.5018315018315,585.0549450549451,0.091492,0.133606,0.997375,0.598145,-1.091614,0.029907,1272454.212454,157050183.150183,112370842.490842,88.184265,1,1,1,1,1,60.000000
2025-05-02 15:16:47.547,0.6920070756100499,1.187676684359531,1.272419982274898,0.5085612533476407,0.2345754835929095,0.6801336700614558,0.815162255363956,0.4301763473271367,0.4692345694651123,0.4206033250146963,0.705785487294475,0.8181611773568332,0.5759262419750149,0.6382850236621177,0.4259773630897247,0.6289484693972851,0.2060242548913206,0.4091533799416267,-0.244323780694516,0.1322630139897323,796.996336996337,894.1025641025641,867.1062271062272,786.1172161172161,765.9706959706959,0.093750,0.132507,0.989136,-0.044861,-1.884155,-0.291595,1281318.681319,157221831.501832,112384542.124542,87.306389,1,1,1,1,1,60.000000
2025-05-02 15:16:47.701,,,,,,,,,,,,,,,,,,,,,,,,,,,,,,,,,,,,,,,,,,/muse/elements/blink
2025-05-02 15:16:48.024,,,,,,,,,,,,,,,,,,,,,,,,,,,,,,,,,,,,,,,,,,/muse/elements/blink
2025-05-02 15:16:48.552,0.509065025148543,1.187676684359531,1.446026291685139,0.5307986633356315,0.2993855311162519,0.6801336700614558,0.9483888450470103,0.4324910718144429,0.3229180649391754,0.4206033250146963,1.004572149020068,0.4557753431866464,0.5684269750163515,0.6382850236621177,0.4722896564946518,0.3782263137116029,0.2678090804732467,0.4091533799416267,-0.03602488665257642,0.07721520770933038,823.1868131868132,840.1098901098901,858.6446886446887,818.3516483516484,707.5457875457876,0.088684,0.132507,0.994995,0.194397,-1.809387,-0.254211,1262783.882784,156967985.347985,112053333.333333,86.466026,1,1,1,1,1,60.000000
2025-05-02 15:16:49.549,0.8779637262805481,0.9787482058418706,1.519529362156373,0.5913004919238716,0.4149000254329067,0.282419673150257,1.007139390837918,0.6487678549428487,0.3056511623935317,0.3133684220822934,0.9959655562501605,0.6024175979570422,0.5151757768098073,0.4695584151972036,0.493624909607538,0.7127937318551545,0.1513474652667189,0.4077845492743951,0.01273372294154286,0.2102180191097427,853.4065934065934,796.5934065934066,774.0293040293041,820.7692307692308,553.2234432234433,0.098999,0.134888,0.990906,0.052338,-1.831818,-0.747681,1264395.604396,156956703.296703,112089597.069597,87.655975,1,1,1,1,1,60.000000
2025-05-02 15:16:49.952,,,,,,,,,,,,,,,,,,,,,,,,,,,,,,,,,,,,,,,,,,/muse/elements/blink
2025-05-02 15:16:50.547,0.8368564155259297,1.087226366817724,1.519529362156373,0.5745454001237862,0.3862190256382552,0.4779454657300317,1.007139390837918,0.750589919384924,0.3151649390229738,0.3806368572588921,0.9959655562501605,0.6024175979570422,0.513394325260596,0.440276033418804,0.493624909607538,0.6940101753849641,0.2106434675241645,0.3329750130934339,0.01273372294154286,0.1732564051587101,805.0549450549451,811.0989010989011,730.9157509157509,801.4285714285714,610.8424908424909,0.089966,0.133240,0.988342,0.373840,-0.620575,-0.493469,1260366.300366,156838241.758242,111944542.124542,87.655975,1,1,1,1,1,60.000000
2025-05-02 15:16:51.547,0.8377499117370262,1.143165453644626,1.519529362156373,0.5038695213060506,0.3696774051482999,0.4370058732067265,1.007139390837918,0.8526906875765622,0.2807780359370419,0.6654601318271512,0.9959655562501605,0.5204473443196385,0.5286781263463224,0.4066981561303968,0.493624909607538,0.7133901658594305,0.2564558070327735,0.2668672994378835,0.01273372294154286,0.1608098921871082,706.3369963369963,850.1831501831502,850.989010989011,746.6300366300367,735.7509157509157,0.091003,0.130981,0.990784,0.134583,-0.807495,-0.007477,1257142.857143,156676263.736264,112035604.395604,85.490479,1,1,1,1,1,60.000000
2025-05-02 15:16:51.679,,,,,,,,,,,,,,,,,,,,,,,,,,,,,,,,,,,,,,,,,,/muse/elements/blink
2025-05-02 15:16:52.547,0.8377499117370262,1.117651543553582,1.519529362156373,0.5038695213060506,0.3696774051482999,0.4145872456601368,1.007139390837918,0.8526906875765622,0.2807780359370419,0.5614539715168386,0.9959655562501605,0.5204473443196385,0.5286781263463224,0.4816045010259699,0.493624909607538,0.7133901658594305,0.2564558070327735,-0.03897337610623952,0.01273372294154286,0.1608098921871082,859.8534798534798,780.8791208791209,834.4688644688645,814.7252747252747,520.989010989011,0.098328,0.134827,0.994751,0.575714,-2.048645,-0.403748,1253113.553114,156587619.047619,112173406.593407,84.586830,1,2,1,1,2,60.000000
2025-05-02 15:16:53.436,,,,,,,,,,,,,,,,,,,,,,,,,,,,,,,,,,,,,,,,,,/muse/elements/blink
2025-05-02 15:16:53.558,0.8377499117370262,1.117651543553582,1.519529362156373,0.5038695213060506,0.3696774051482999,0.4145872456601368,1.007139390837918,0.8526906875765622,0.2807780359370419,0.5614539715168386,0.9959655562501605,0.5204473443196385,0.5286781263463224,0.4816045010259699,0.493624909607538,0.7133901658594305,0.2564558070327735,-0.03897337610623952,0.01273372294154286,0.1608098921871082,808.2783882783883,809.8901098901099,732.1245421245421,800.6227106227107,757.9120879120879,0.097534,0.139526,0.992249,-0.157013,-1.637421,-0.299072,1261978.021978,156615018.315018,112426446.886447,84.856270,1,2,1,1,2,60.000000
2025-05-02 15:16:54.501,,,,,,,,,,,,,,,,,,,,,,,,,,,,,,,,,,,,,,,,,,/muse/elements/blink
2025-05-02 15:16:54.561,0.8377499117370262,1.117651543553582,1.519529362156373,0.5038695213060506,0.3696774051482999,0.4145872456601368,1.007139390837918,0.8526906875765622,0.2807780359370419,0.5614539715168386,0.9959655562501605,0.5204473443196385,0.5286781263463224,0.4816045010259699,0.493624909607538,0.7133901658594305,0.2564558070327735,-0.03897337610623952,0.01273372294154286,0.1608098921871082,815.934065934066,745.0183150183151,899.7435897435897,810.2930402930403,843.3333333333334,0.089172,0.137390,0.998962,0.687866,-2.018738,0.082245,1246666.666667,156242710.622711,112195970.695971,88.166122,1,2,1,1,2,60.000000
2025-05-02 15:16:55.547,0.8377499117370262,1.117651543553582,1.519529362156373,0.5038695213060506,0.3696774051482999,0.4145872456601368,1.007139390837918,0.8526906875765622,0.2807780359370419,0.5614539715168386,0.9959655562501605,0.5204473443196385,0.5286781263463224,0.4816045010259699,0.493624909607538,0.7133901658594305,0.2564558070327735,-0.03897337610623952,0.01273372294154286,0.1608098921871082,834.4688644688645,817.5457875457876,845.3479853479854,795.3846153846154,536.3003663003664,0.096741,0.139832,0.988464,0.822449,-2.190704,0.254211,1253919.413919,156448205.128205,112299120.879121,85.636780,1,2,1,1,2,60.000000
2025-05-02 15:16:56.547,0.3895848288919159,1.117651543553582,1.519529362156373,0.4485124248906945,0.2965309079703228,0.4145872456601368,1.007139390837918,0.2740807787532674,0.5789812556350192,0.5614539715168386,0.9959655562501605,0.4495429449393203,0.4523533579035596,0.4816045010259699,0.493624909607538,0.3538852319198033,0.2166884987485118,-0.03897337610623952,0.01273372294154286,-0.1228180338602719,785.3113553113553,845.7509157509157,851.7948717948718,786.5201465201466,763.956043956044,0.085693,0.140076,0.995483,0.635529,-2.190704,0.186920,1253919.413919,156606959.706960,112449816.849817,84.356766,1,1,1,1,1,60.000000
2025-05-02 15:16:56.662,,,,,,,,,,,,,,,,,,,,,,,,,,,,,,,,,,,,,,,,,,/muse/elements/blink
2025-05-02 15:16:57.547,0.487243361491297,1.475682168375643,1.519529362156373,0.3769177763307686,0.3903369333437759,1.127645840446999,1.007139390837918,0.1034839813649164,0.5789321481866904,0.6189700168739812,0.9959655562501605,0.1497412597824145,0.402895949190456,0.486028659828154,0.493624909607538,0.3050682828112958,0.2811325015684161,0.3230050580061561,0.01273372294154286,-0.04273748389738068,792.967032967033,837.2893772893773,846.959706959707,824.3956043956044,671.6849816849817,0.089172,0.135803,0.996338,0.635529,-1.988831,0.067291,1246666.666667,156546520.146520,112222564.102564,84.356766,1,1,1,1,1,60.000000
2025-05-02 15:16:58.552,0.6938255191310878,1.191998496765956,1.519529362156373,1.175212875911139,0.74540368822781,0.8141025350363427,1.007139390837918,0.9292312111949665,0.8497342324150643,0.6164669859121821,0.9959655562501605,0.8851358747287563,0.7856978758215124,0.6445744938038634,0.493624909607538,0.7374045149962347,0.438119847234848,0.1907304326724198,0.01273372294154286,0.419381371844977,832.4542124542124,828.4249084249085,850.989010989011,795.7875457875458,614.8717948717949,0.099365,0.140686,0.992188,0.717773,-2.138367,-0.082245,1253919.413919,156777802.197802,112383736.263736,84.356766,1,1,1,1,1,60.000000
2025-05-02 15:16:59.547,0.7135140016267099,0.8312893888434782,1.019442075582376,0.8982353921968168,0.5819162279147455,0.6928676695785994,0.4073165294212192,0.6669835262791912,0.994841451609964,0.6200882434789664,0.7282831505416414,0.8862954461109556,0.6667581284757292,0.7656495891189751,0.4575526937846603,0.6346724257538429,0.262651006405234,0.3444704549458009,0.1303864189804712,0.2490639563291697,752.2710622710623,850.1831501831502,839.3040293040293,738.1684981684982,609.2307692307693,0.107361,0.134155,0.992920,0.231781,-1.614990,0.381317,1260366.300366,157063076.923077,112735091.575092,86.352921,1,1,1,1,1,60.000000
2025-05-02 15:16:59.692,,,,,,,,,,,,,,,,,,,,,,,,,,,,,,,,,,,,,,,,,,/muse/elements/blink
2025-05-02 15:17:00.555,0.932716643869559,0.9041966368872545,1.111771325441982,0.7746373324298927,0.5884802163678098,0.7435430517878484,0.5698262174173323,0.6475814610413437,0.6808017466712631,0.4339708706883366,0.6723431973143996,0.5024184740658129,0.4710129371310646,0.7268699491232362,0.4472194452965005,0.5367439956063035,0.2046491690880193,0.5300376111470891,0.1219972448902247,0.1042845284600024,812.7106227106227,829.6336996336996,803.8461538461539,803.8461538461539,730.9157509157509,0.147339,0.139221,0.991760,-0.014954,-5.697327,-0.650482,1254725.274725,157490183.150183,113263736.263736,86.275803,1,1,1,1,1,60.000000
2025-05-02 15:17:01.554,0.5064611101101099,1.140187929042481,1.111771325441982,0.6781628988768686,0.02899604253877531,0.2488300126040831,0.5698262174173323,0.4462780285779399,0.1454363879450136,0.4829860193827955,0.6723431973143996,0.3375555977543988,0.3864687262262232,0.43299684530649,0.4472194452965005,0.2992465908779673,0.2123541156370887,0.4752960194859299,0.1219972448902247,-0.08539354160766589,835.2747252747253,858.6446886446887,837.6923076923077,803.040293040293,514.9450549450549,0.156799,0.130371,0.989929,0.149536,-1.069183,-0.246735,1253919.413919,157708571.428571,113311282.051282,85.591743,1,1,1,1,1,60.000000
2025-05-02 15:17:02.547,0.4260044834769858,1.20684974471973,0.9131308754863284,0.6444654516784918,0.08776365382352316,0.6499128026410486,0.6544943127661188,0.2292348504149139,0.3492101894772045,0.82667943879302,0.3825814180129112,0.6173949744513831,0.4129442135997332,0.4390302132011538,0.5475161814279969,0.3476291939325379,0.2466841770614507,0.4292797997041759,0.09932214392527881,0.09701729003333392,813.5164835164835,831.6483516483516,876.7765567765568,807.0695970695971,706.3369963369963,0.158020,0.133362,0.981934,0.553284,-0.807495,-0.231781,1248278.388278,157379780.219780,112996190.476190,85.591743,1,1,1,1,1,60.000000
2025-05-02 15:17:02.935,,,,,,,,,,,,,,,,,,,,,,,,,,,,,,,,,,,,,,,,,,/muse/elements/blink
2025-05-02 15:17:03.547,0.3847375600387101,1.197847805244692,0.9905410026200162,0.8285169566559962,0.141819046545871,0.9709191517416427,0.6461283906316789,0.01769200778063023,0.244536538480873,0.8604639596914803,0.2957356781717068,0.6035547323899022,0.4594611981399947,0.4340868269140195,0.4955506887501121,0.4938377446705112,0.2654127910204123,0.3961164513422186,0.08132450743757363,0.3497424722602918,843.7362637362637,825.2014652014652,772.4175824175825,826.4102564102565,912.6373626373627,0.157654,0.133179,0.992615,0.089722,-1.121521,-0.381317,1249084.249084,157461172.161172,112958315.018315,85.474289,1,1,1,1,1,60.000000
2025-05-02 15:17:04.549,0.3847375600387101,1.144541875023015,0.9905410026200162,0.8291389094550123,0.141819046545871,0.9535108725125735,0.6461283906316789,0.013263889394538,0.244536538480873,0.8604639596914803,0.2957356781717068,0.6006184783157826,0.4594611981399947,0.4077088927301834,0.4955506887501121,0.4924048310229331,0.2654127910204123,0.4183764503898572,0.08132450743757363,0.3686713501329266,690.2197802197802,854.2124542124542,769.5970695970697,670.4761904761905,584.6520146520147,0.160889,0.131287,0.989685,0.381317,-1.607513,-0.097198,1257948.717949,157702124.542125,113291135.531136,80.718132,1,1,1,1,1,60.000000
2025-05-02 15:17:04.770,,,,,,,,,,,,,,,,,,,,,,,,,,,,,,,,,,,,,,,,,,/muse/elements/blink
2025-05-02 15:17:05.547,0.3847375600387101,1.144541875023015,0.9905410026200162,0.8291389094550123,0.141819046545871,0.9535108725125735,0.6461283906316789,0.013263889394538,0.244536538480873,0.8604639596914803,0.2957356781717068,0.6006184783157826,0.4594611981399947,0.4077088927301834,0.4955506887501121,0.4924048310229331,0.2654127910204123,0.4183764503898572,0.08132450743757363,0.3686713501329266,788.9377289377289,813.1135531135532,773.2234432234433,774.4322344322345,807.8754578754579,0.153748,0.133240,0.983704,0.291595,-0.725250,0.149536,1260366.300366,157669890.109890,113286300.366300,79.679123,1,2,1,1,2,60.000000
2025-05-02 15:17:06.554,0.7551857523331261,0.7934913328558524,0.9905410026200162,0.534098365830998,0.4101037645587436,0.2904449622822775,0.6461283906316789,0.6123424818007905,0.4726023549525913,0.4168821892556726,0.2957356781717068,0.7922701334509636,0.3362001229863741,0.5698443386146781,0.4955506887501121,0.2217514380150239,0.4486032635947378,0.1695164082113587,0.08132450743757363,0.1484984504281193,768.3882783882784,815.934065934066,809.4871794871796,799.4139194139194,660.8058608058608,0.143005,0.135315,0.987671,1.166382,-2.018738,0.411224,1257142.857143,157412014.652015,113013113.553114,78.016296,1,1,1,1,1,60.000000
2025-05-02 15:17:07.553,0.6048676042003207,0.8153773246225258,0.9905410026200162,0.4016503557723111,0.2719657436683268,0.272710756720884,0.6461283906316789,0.4027836359417191,0.4099926707814986,0.2990411039248672,0.2957356781717068,0.7473386153713873,0.5493513339437518,0.5437435696908571,0.4955506887501121,0.2955232632541911,0.2951859725951658,0.1245778681912981,0.08132450743757363,0.07828183496734369,831.2454212454213,855.8241758241759,815.934065934066,811.0989010989011,618.0952380952381,0.150208,0.127136,0.986145,0.523376,-1.652374,0.142059,1250695.970696,157330622.710623,113096923.076923,78.885620,1,1,1,1,1,60.000000
2025-05-02 15:17:08.547,0.6389435052829554,1.012805523621737,0.9905410026200162,0.5043776638755249,-0.2638427606857264,0.2915919316156869,0.6461283906316789,0.3402135601115436,0.3860929296824327,0.2288217266116315,0.2957356781717068,0.8914447090342145,0.7931867482568629,0.3464481819488944,0.4955506887501121,0.531926538275695,0.01179618714051196,0.2064227815015033,0.08132450743757363,0.1353370527197655,807.8754578754579,848.1684981684982,844.9450549450549,817.948717948718,699.4871794871796,0.142883,0.130005,0.988098,0.007477,-1.203766,-0.755157,1247472.527473,157168644.688645,113236336.996337,78.680901,1,1,1,1,1,60.000000
2025-05-02 15:17:09.538,,,,,,,,,,,,,,,,,,,,,,,,,,,,,,,,,,,,,,,,,,/muse/elements/blink
2025-05-02 15:17:09.554,0.5316925893261244,0.9226225096193296,1.188825611410988,0.3885190455195346,0.1337746308074858,0.240902322502483,0.413569011324621,0.1428505949870411,0.5317186084921269,0.3997795859657471,0.6818110663195061,0.7198885862293047,0.3088179131925377,0.3593188942926759,0.6098338879286352,0.4425141708664626,0.2838799816278791,0.1821186936362866,-0.0429647335443421,0.09795525111466075,832.0512820512821,817.1428571428571,786.5201465201466,855.0183150183151,644.2857142857143,0.141174,0.131409,0.985779,0.695343,-1.472931,0.291595,1253919.413919,157154945.054945,113272600.732601,79.965141,1,1,1,1,1,60.000000
2025-05-02 15:17:10.557,0.4026260035897022,0.8463431200480528,1.298201796559306,-0.04918449863522218,0.0462026423909528,0.4273113094788404,0.5209675106155177,-0.03209453482121556,0.2828482350297259,0.5306495987272529,0.654720789825891,0.05599936023780301,0.199150114223238,0.3215446660458782,0.578133743953123,0.08036778581089621,0.3575396740567076,0.1720405415516439,-0.07345959736795483,-0.341141974908655,829.6336996336996,832.8571428571429,835.2747252747253,799.4139194139194,568.5347985347986,0.133850,0.123779,0.985474,1.233673,-0.538330,-1.158905,1253919.413919,157174285.714286,113204102.564103,79.898712,1,1,1,1,1,60.000000
2025-05-02 15:17:11.546,0.08853619029478835,0.4940597506010859,1.12867894403919,0.4792770211557476,-0.1427607164673984,0.1853832812628587,0.3272665706776374,0.205016445978789,0.6391592038398487,-0.0893740690629283,0.6126888508097524,0.4815339619126224,0.4929284979296985,0.5030573122209665,0.6050550323736689,-0.01125900538433101,-0.06309235479983716,0.1738861047400696,-0.01568788455535559,-0.23923365963294,824.3956043956044,830.8424908424909,803.8461538461539,810.6959706959707,640.2564102564103,0.134766,0.125671,0.989136,-0.171967,-1.143951,-0.957031,1255531.135531,157054212.454212,112909157.509158,79.565750,1,1,1,1,1,60.000000
2025-05-02 15:17:11.699,,,,,,,,,,,,,,,,,,,,,,,,,,,,,,,,,,,,,,,,,,/muse/elements/blink
2025-05-02 15:17:12.111,,,,,,,,,,,,,,,,,,,,,,,,,,,,,,,,,,,,,,,,,,/muse/elements/blink
2025-05-02 15:17:12.547,0.2056781685928463,0.8477543071412305,0.8337968078156933,0.4627342713876103,-0.05602085631079989,0.2861993949110038,0.5550910691631437,0.2285704481441159,0.6244170801338618,0.03758820427724525,0.4880045370321018,0.4489304777096144,0.4582041557781315,0.5296042781893552,0.5446371680586898,-0.0176014730832156,0.02161875006633231,0.2664165733970532,0.07618427015022176,-0.2399305144499701,841.7216117216118,838.4981684981685,773.2234432234433,821.5750915750916,652.7472527472528,0.132446,0.131226,0.986572,0.366364,-1.360779,0.299072,1261172.161172,157178315.018315,113034065.934066,79.897972,1,1,1,1,1,60.000000
2025-05-02 15:17:13.564,0.2056781685928463,1.097603359446834,0.751587034947772,0.4627342713876103,-0.05602085631079989,0.4890191058940688,0.7291745566801034,0.2285704481441159,0.6244170801338618,0.03180499867031879,0.4192989956019024,0.4489304777096144,0.4582041557781315,0.5512508280166919,0.4111024563101756,-0.0176014730832156,0.02161875006633231,0.3509506570289528,0.1186063594205074,-0.2399305144499701,861.0622710622711,822.3809523809524,832.8571428571429,826.007326007326,553.2234432234433,0.131165,0.132141,0.998901,-0.224304,-1.114044,-0.598145,1258754.578755,157138827.838828,112928498.168498,79.897972,1,1,1,1,1,60.000000
2025-05-02 15:17:13.612,,,,,,,,,,,,,,,,,,,,,,,,,,,,,,,,,,,,,,,,,,/muse/elements/blink
2025-05-02 15:17:14.557,0.2056781685928463,0.7490723870516681,0.751587034947772,0.4627342713876103,-0.05602085631079989,0.5042482457309848,0.7291745566801034,0.2285704481441159,0.6244170801338618,0.4547535324917506,0.4192989956019024,0.4489304777096144,0.4582041557781315,0.4818951204093522,0.4111024563101756,-0.0176014730832156,0.02161875006633231,0.270700582782785,0.1186063594205074,-0.2399305144499701,804.6520146520147,848.1684981684982,833.2600732600733,801.4285714285714,642.6739926739926,0.131348,0.132019,0.993347,-0.201874,-1.764526,-0.680389,1254725.274725,157127545.787546,112834212.454212,81.168655,1,2,1,1,2,60.000000
2025-05-02 15:17:15.547,0.9935778602690558,0.9815191470226066,1.266669922266146,0.6408754979055226,0.7158309229382672,0.4692927725087765,0.7708481886920878,0.5984662682514759,0.8198879164597654,0.4720431110347006,0.4797561097800075,0.7801976119763527,0.3967088634309413,0.5787227513000484,0.6550304863329856,0.2924885789982292,0.3030770207914897,0.1351791265293433,0.1104308206730422,0.1537843771946288,818.3516483516484,841.3186813186813,839.7069597069598,823.1868131868132,747.032967032967,0.133606,0.146057,0.989990,0.919647,-1.450500,1.293488,1255531.135531,157046153.846154,112884175.824176,83.527084,1,1,1,1,1,60.000000
2025-05-02 15:17:15.955,,,,,,,,,,,,,,,,,,,,,,,,,,,,,,,,,,,,,,,,,,/muse/elements/blink
2025-05-02 15:17:16.547,1.157780117134914,1.136660433290207,1.266669922266146,0.5486547377540449,0.7830918528157494,0.5603890607285213,0.7708481886920878,0.4083693168044322,0.8238354357461382,0.3949071228675449,0.4797561097800075,0.7401385964513912,0.3957239394246881,0.6969420625694844,0.6550304863329856,0.3523954909387468,0.322199599043834,0.03521703369509938,0.1104308206730422,0.1292025433141241,822.3809523809524,726.8864468864469,865.0915750915751,787.7289377289378,533.8827838827839,0.131714,0.142944,0.993164,0.695343,-1.540222,0.284119,1241831.501832,156785860.805861,112706886.446886,85.223259,1,1,1,1,1,60.000000
2025-05-02 15:17:17.285,,,,,,,,,,,,,,,,,,,,,,,,,,,,,,,,,,,,,,,,,,/muse/elements/blink
2025-05-02 15:17:17.547,1.316288583570703,1.136660433290207,1.266669922266146,0.4747179697297938,0.8083512097571762,0.5603890607285213,0.7708481886920878,0.1676186024489017,0.5988701552198766,0.3949071228675449,0.4797561097800075,0.6205095437017807,0.3975033634746972,0.6969420625694844,0.6550304863329856,0.4780608838603327,0.3879824728325202,0.03521703369509938,0.1104308206730422,0.2000492220098337,761.5384615384615,794.5787545787546,668.8644688644689,747.4358974358975,776.0439560439561,0.129700,0.133240,0.989197,0.299072,-1.196289,-0.239258,1240219.780220,156739926.739927,112880952.380952,85.741280,1,1,1,1,1,60.000000
2025-05-02 15:17:18.547,1.316288583570703,1.136660433290207,1.266669922266146,0.4747179697297938,0.8083512097571762,0.5603890607285213,0.7708481886920878,0.1676186024489017,0.5988701552198766,0.3949071228675449,0.4797561097800075,0.6205095437017807,0.3975033634746972,0.6969420625694844,0.6550304863329856,0.4780608838603327,0.3879824728325202,0.03521703369509938,0.1104308206730422,0.2000492220098337,717.6190476190476,740.1831501831502,725.2747252747253,740.989010989011,562.0879120879121,0.135559,0.127319,0.989136,0.583191,-1.786957,0.269165,1233772.893773,156536849.816850,112955091.575092,85.673775,1,2,1,1,2,60.000000
2025-05-02 15:17:19.547,0.8041233924035841,1.136660433290207,1.266669922266146,0.7412122309942775,0.4947777560887452,0.5603890607285213,0.7708481886920878,0.2852990169616089,0.7702629355502433,0.3949071228675449,0.4797561097800075,0.4966772167347337,0.6228137703166694,0.6969420625694844,0.6550304863329856,0.5544104954919203,0.01508574136435668,0.03521703369509938,0.1104308206730422,0.06279110584361589,766.3736263736264,818.7545787545788,844.1391941391942,727.6923076923077,567.3260073260074,0.135559,0.141235,0.992004,1.151428,-2.123413,0.942078,1230549.450549,156324908.424908,113068717.948718,85.673775,1,1,1,1,1,60.000000
2025-05-02 15:17:19.810,,,,,,,,,,,,,,,,,,,,,,,,,,,,,,,,,,,,,,,,,,/muse/elements/blink
2025-05-02 15:17:20.547,0.9518438664535052,1.136660433290207,1.266669922266146,0.780016170879979,0.5583386234076966,0.5603890607285213,0.7708481886920878,0.05102579797601499,0.7600119739985884,0.3949071228675449,0.4797561097800075,0.4483284830439149,0.62342247817164,0.6969420625694844,0.6550304863329856,0.5938144688068819,-0.006505798902037196,0.03521703369509938,0.1104308206730422,0.131739683469045,830.0366300366301,832.4542124542124,789.3406593406594,798.2051282051282,686.1904761904763,0.139343,0.144226,0.987915,1.151428,-1.540222,-0.097198,1230549.450549,156328937.728938,113317728.937729,88.364845,1,1,1,1,1,60.000000
2025-05-02 15:17:21.550,0.5272285743928844,0.7849115863802685,1.266669922266146,0.5258895520752347,0.3440897162321848,0.4720366755942618,0.7708481886920878,0.4498931498415356,0.4982673444871902,0.5884314041955458,0.4797561097800075,0.4775962051726945,0.3957405322927923,0.5550351546864584,0.6550304863329856,0.4161078919365887,0.1755875156076016,0.5275209335013989,0.1104308206730422,0.1609167904771606,820.3663003663004,842.9304029304029,834.0659340659341,798.2051282051282,734.9450549450549,0.135986,0.136475,0.989258,0.067291,-1.547699,-0.112152,1236996.336996,156297509.157509,113372527.472527,87.821106,1,1,1,1,1,60.000000
2025-05-02 15:17:21.908,,,,,,,,,,,,,,,,,,,,,,,,,,,,,,,,,,,,,,,,,,/muse/elements/blink
2025-05-02 15:17:22.552,0.5001722719067392,0.9784257334767894,1.272189353747764,0.5352448659180339,0.3454693762131666,0.4965760110826312,1.09675636109231,0.4124897349128357,0.5085796002002827,0.5237932454657408,1.015518551541061,0.5229396558655662,0.4287414116579777,0.5120168106825893,0.4977195739807797,0.3553776965564475,0.1665156523678838,0.4144795957897626,-0.04195968311151542,0.1046070226597026,826.4102564102565,834.8717948717949,827.6190476190476,793.3699633699634,641.8681318681319,0.141479,0.135254,0.992249,0.747681,-1.308441,-0.104675,1245860.805861,156590842.490842,113518388.278388,88.475479,1,1,1,1,1,60.000000
2025-05-02 15:17:23.546,0.7273160370298455,0.3522434580778571,1.272189353747764,0.8311284390872011,0.6156088081107118,0.3042622981654279,1.09675636109231,0.3522265124339727,0.3697289218775221,0.2955714037056291,1.015518551541061,0.4116895074426069,0.3241343628569874,0.5925186244207548,0.4977195739807797,0.4165682509901736,0.005757625596803555,0.3620407951632734,-0.04195968311151542,0.05007334720087591,799.8168498168499,828.4249084249085,831.6483516483516,799.4139194139194,699.0842490842491,0.130676,0.141052,0.991699,-0.284119,-0.949554,-0.149536,1257142.857143,156854358.974359,113561098.901099,90.228439,1,1,1,1,1,60.000000
2025-05-02 15:17:23.981,,,,,,,,,,,,,,,,,,,,,,,,,,,,,,,,,,,,,,,,,,/muse/elements/blink
2025-05-02 15:17:24.559,0.7337119381560452,0.5677949659736307,1.185779364267383,0.8066826240423346,0.7060712819096612,0.3004309617225747,0.7638819111666696,0.7015176414703124,0.8915257870984973,0.3845059785068647,0.7831896236425713,0.7322070254850929,0.4595137892022986,0.5486294933636946,0.4485025756387506,0.5835985872787406,0.07024311624645026,0.2056993993539462,0.1209220289920162,0.1818802943221774,815.5311355311355,832.0512820512821,784.9084249084249,813.5164835164835,786.5201465201466,0.137329,0.137634,0.992859,0.328979,-1.114044,-0.134583,1266007.326007,157055824.175824,113586080.586081,91.066711,1,1,1,1,1,60.000000
2025-05-02 15:17:25.201,,,,,,,,,,,,,,,,,,,,,,,,,,,,,,,,,,,,,,,,,,/muse/elements/blink
2025-05-02 15:17:25.547,0.7053512803798621,0.8153555659089907,1.185779364267383,0.7173502311097363,0.817184205778362,0.5057315265531451,0.7638819111666696,0.9123603327650305,0.8915257870984973,0.5250906826957207,0.7831896236425713,0.7322070254850929,0.5878581569390476,0.5186494083178217,0.4485025756387506,0.7295061783986301,0.1384413867807145,0.07181655012081486,0.1209220289920162,0.2999039292223736,804.2490842490843,818.3516483516484,851.7948717948718,826.4102564102565,699.4871794871796,0.134949,0.137512,0.989136,0.762634,-1.128998,0.179443,1261978.021978,156802783.882784,113221831.501832,90.966728,1,1,1,1,1,60.000000
2025-05-02 15:17:26.547,0.7053512803798621,0.7917160286382258,1.185779364267383,0.7173502311097363,0.817184205778362,0.387186050769083,0.7638819111666696,0.9123603327650305,0.8915257870984973,0.5903158808190181,0.7831896236425713,0.7322070254850929,0.5878581569390476,0.4744752283199042,0.4485025756387506,0.7295061783986301,0.1384413867807145,0.1203548077364807,0.1209220289920162,0.2999039292223736,826.8131868131868,846.1538461538462,787.3260073260074,794.5787545787546,733.7362637362637,0.138306,0.141663,0.989197,0.074768,-1.697235,0.179443,1271648.351648,156793919.413919,113109010.989011,91.529312,1,2,1,1,2,60.000000
2025-05-02 15:17:26.927,,,,,,,,,,,,,,,,,,,,,,,,,,,,,,,,,,,,,,,,,,/muse/elements/blink
2025-05-02 15:17:27.556,0.4762291136100868,0.687926503946234,1.185779364267383,0.456537230049207,0.4586866887716234,0.3998218180075034,0.7638819111666696,0.7237403067549357,1.031698278545658,0.3921032351178281,0.7831896236425713,0.9456114163739417,0.8425463390085779,0.4404167454682651,0.4485025756387506,0.5736054845168199,0.2677500987282332,0.1381344974899596,0.1209220289920162,0.1567335152975058,848.974358974359,839.7069597069598,801.4285714285714,841.3186813186813,655.5677655677656,0.129272,0.141296,0.991394,0.381317,-1.061707,-0.269165,1266813.186813,156444981.684982,112974432.234432,90.564476,1,1,1,1,1,60.000000
2025-05-02 15:17:28.547,0.4762291136100868,0.9331868371410121,1.185779364267383,1.1116047465904,0.4586866887716234,0.6684578543006096,0.7638819111666696,0.4887134607054068,1.031698278545658,0.3398077124610089,0.7831896236425713,0.9961647688415297,0.8425463390085779,0.3957287044031577,0.4485025756387506,0.459426601674142,0.2677500987282332,0.1580446670109819,0.1209220289920162,0.09985643792439278,855.0183150183151,814.3223443223443,758.7179487179487,837.2893772893773,624.9450549450549,0.135315,0.146973,0.989807,0.740204,-1.914062,0.254211,1270842.490842,156643223.443223,113212967.032967,90.612846,1,1,1,1,1,60.000000
2025-05-02 15:17:29.365,,,,,,,,,,,,,,,,,,,,,,,,,,,,,,,,,,,,,,,,,,/muse/elements/blink
2025-05-02 15:17:29.556,1.288615295760903,1.134586552882494,1.185779364267383,1.206625376391789,0.7715090281294903,0.4731872446706663,0.7638819111666696,0.8096504443356863,0.7813702197524161,0.6947585284398144,0.7831896236425713,1.032155217462988,0.4006073973525051,0.294771287660591,0.4485025756387506,0.4867078589244535,0.2881062253660356,0.1561266594949956,0.1209220289920162,0.1621772552752425,798.6080586080586,785.3113553113553,806.2637362637363,802.6373626373627,846.959706959707,0.123779,0.149231,0.988831,0.059814,-1.420593,0.381317,1265201.465201,156623076.923077,113208131.868132,89.817917,1,1,1,1,1,60.000000
2025-05-02 15:17:30.557,1.338790848905233,1.405276356096324,1.185779364267383,1.323456267554926,0.9095231181359074,0.719342755567,0.7638819111666696,1.081047193141958,0.7813702197524161,0.8180632972260321,0.7831896236425713,0.9283432117355062,0.4174243507344275,0.3557796911039724,0.4485025756387506,0.5563971359870228,0.3566035359132418,0.165752636926043,0.1209220289920162,0.2463108945790848,801.025641025641,827.2161172161173,825.6043956043957,781.2820512820513,708.7545787545788,0.126465,0.146545,0.992859,0.418701,-1.211243,0.112152,1268424.908425,156820512.820513,113329010.989011,88.838356,1,1,1,1,1,60.000000
2025-05-02 15:17:31.547,1.074133880964552,0.9891117098687701,1.185779364267383,0.9872136610631376,0.5838770944594563,0.3098658988311384,0.7638819111666696,0.4407534313132942,0.6834734579387869,0.2225407189804481,0.7831896236425713,0.7333036713985427,0.552617618364173,0.4531915731628143,0.4485025756387506,0.495827177149313,-0.1188577962143145,0.04955670778028543,0.1209220289920162,0.1754588179480486,828.021978021978,841.7216117216118,822.3809523809524,807.8754578754579,731.7216117216118,0.134949,0.153503,0.991882,0.994415,-1.667328,0.373840,1270842.490842,156876117.216117,113279047.619048,89.356926,1,1,1,1,1,60.000000
2025-05-02 15:17:32.547,0.8677734466652492,0.7884855264972338,1.077912872509883,0.964119370545835,0.4257031372386753,0.1605377047363872,0.5801925409953361,0.3857556847029694,0.7572945209944769,0.2466831798097634,0.7614698025207286,0.668549403768235,0.4527679793022746,0.410701830170824,0.4298923809366746,0.1078608219981723,0.1286811923226434,0.03911766999959498,0.1132000334485937,-0.02164049283789735,825.6043956043957,790.1465201465202,770.4029304029305,809.8901098901099,675.7142857142858,0.125793,0.147278,0.991028,0.471039,-2.093506,-0.000000,1273260.073260,156895457.875458,113141245.421245,89.040939,1,1,1,1,1,60.000000
2025-05-02 15:17:33.302,,,,,,,,,,,,,,,,,,,,,,,,,,,,,,,,,,,,,,,,,,/muse/elements/blink
2025-05-02 15:17:33.499,,,,,,,,,,,,,,,,,,,,,,,,,,,,,,,,,,,,,,,,,,/muse/elements/blink
2025-05-02 15:17:33.557,0.87959115787221,0.8005330546030599,1.272275441143803,0.865732697005995,0.3840030221559912,0.06637448522993154,0.5044889549746804,0.2622648477742122,0.616800117204119,0.002139825608109456,0.6868155641844614,0.4682771383646337,0.5344581582294456,0.3549814801865831,0.6021967605118299,0.2820221592345806,0.2510163826602755,0.04799509760827512,-0.02979884077781035,-0.04044386847216987,893.2967032967033,805.4578754578755,733.7362637362637,896.9230769230769,670.8791208791209,0.130554,0.153625,0.986206,0.082245,-1.241150,0.044861,1261978.021978,156643223.443223,112883369.963370,89.195122,1,1,1,1,1,60.000000
2025-05-02 15:17:34.547,0.7067850281065335,0.8005330546030599,1.272275441143803,0.7198689528857256,0.5468624909444502,0.06637448522993154,0.5044889549746804,0.2931331944827716,0.4260589951318817,0.002139825608109456,0.6868155641844614,0.3125694529260102,0.6692497278282361,0.3549814801865831,0.6021967605118299,0.3460323763087805,0.2476432169667613,0.04799509760827512,-0.02979884077781035,-0.04765405082085716,799.4139194139194,790.5494505494506,784.5054945054945,755.4945054945055,642.2710622710623,0.129211,0.145264,0.988525,0.553284,-1.876678,0.164490,1261172.161172,156382124.542125,112915604.395604,89.719398,1,1,1,1,1,60.000000
2025-05-02 15:17:35.548,0.7067850281065335,0.8005330546030599,1.272275441143803,0.7198689528857256,0.5468624909444502,0.06637448522993154,0.5044889549746804,0.2931331944827716,0.4260589951318817,0.002139825608109456,0.6868155641844614,0.3125694529260102,0.6692497278282361,0.3549814801865831,0.6021967605118299,0.3460323763087805,0.2476432169667613,0.04799509760827512,-0.02979884077781035,-0.04765405082085716,708.3516483516484,722.4542124542124,712.3809523809524,732.5274725274726,669.6703296703297,0.128601,0.153015,0.988586,0.358887,-1.106567,-0.224304,1260366.300366,155982417.582418,112987326.007326,89.784966,1,1,1,1,1,60.000000
2025-05-02 15:17:35.930,,,,,,,,,,,,,,,,,,,,,,,,,,,,,,,,,,,,,,,,,,/muse/elements/blink
2025-05-02 15:17:36.558,0.7067850281065335,0.8005330546030599,1.272275441143803,0.4665719413325253,0.5468624909444502,0.06637448522993154,0.5044889549746804,0.2762814109328469,0.4260589951318817,0.002139825608109456,0.6868155641844614,0.5272260868201089,0.6692497278282361,0.3549814801865831,0.6021967605118299,0.5538243658486177,0.2476432169667613,0.04799509760827512,-0.02979884077781035,0.03453753091818376,796.1904761904763,762.7472527472528,816.7399267399268,780.4761904761905,623.3333333333334,0.131836,0.153381,0.987549,0.127106,-1.413116,-0.276642,1249890.109890,155814798.534799,113176703.296703,89.292862,1,1,1,1,1,60.000000
2025-05-02 15:17:37.547,0.7067850281065335,0.8005330546030599,1.272275441143803,0.4665719413325253,0.5468624909444502,0.06637448522993154,0.5044889549746804,0.2762814109328469,0.4260589951318817,0.002139825608109456,0.6868155641844614,0.5272260868201089,0.6692497278282361,0.3549814801865831,0.6021967605118299,0.5538243658486177,0.2476432169667613,0.04799509760827512,-0.02979884077781035,0.03453753091818376,775.6410256410256,743.4065934065934,743.8095238095239,746.6300366300367,950.9157509157509,0.128540,0.149963,0.985291,0.426178,-0.949554,-0.463562,1254725.274725,155540805.860806,113317728.937729,90.592468,1,1,1,1,1,60.000000
2025-05-02 15:17:38.182,,,,,,,,,,,,,,,,,,,,,,,,,,,,,,,,,,,,,,,,,,/muse/elements/blink
2025-05-02 15:17:38.552,0.8101788257273599,0.9101173732433956,1.272275441143803,0.7870189552807642,0.640988615668486,1.048343207065581,0.5044889549746804,0.4837502111795464,0.7499253464719152,0.9051208620311955,0.6868155641844614,0.5849789626931158,0.5557063196327411,0.7762166373616864,0.6021967605118299,0.5149698845465227,0.3875488576907795,0.4161255859564841,-0.02979884077781035,0.2997808473499305,783.2967032967033,819.5604395604396,836.8864468864469,810.2930402930403,720.4395604395604,0.128174,0.151184,0.989746,0.067291,-1.899109,0.343933,1257948.717949,155690695.970696,113477289.377289,91.756371,1,1,1,1,1,60.000000
2025-05-02 15:17:38.886,,,,,,,,,,,,,,,,,,,,,,,,,,,,,,,,,,,,,,,,,,/muse/elements/blink
2025-05-02 15:17:39.557,0.8466176482850228,0.9101173732433956,1.272275441143803,0.7515432243019385,0.6517521580230177,1.048343207065581,0.5044889549746804,0.4959439189558507,0.7481081751893586,0.9051208620311955,0.6868155641844614,0.5801268687806627,0.562076592159202,0.7762166373616864,0.6021967605118299,0.5008077235886916,0.4376995990525078,0.4161255859564841,-0.02979884077781035,0.320651824930391,805.4578754578755,815.1282051282052,908.6080586080586,792.1611721611722,567.3260073260074,0.126038,0.155212,0.987305,0.104675,-0.867310,-0.336456,1246666.666667,155585934.065934,113366080.586081,91.075897,1,1,1,1,1,60.000000
2025-05-02 15:17:40.327,,,,,,,,,,,,,,,,,,,,,,,,,,,,,,,,,,,,,,,,,,/muse/elements/blink
2025-05-02 15:17:40.547,0.8466176482850228,0.9101173732433956,1.272275441143803,0.7515432243019385,0.6517521580230177,1.048343207065581,0.5044889549746804,0.4959439189558507,0.7481081751893586,0.9051208620311955,0.6868155641844614,0.5801268687806627,0.562076592159202,0.7762166373616864,0.6021967605118299,0.5008077235886916,0.4376995990525078,0.4161255859564841,-0.02979884077781035,0.320651824930391,899.7435897435897,845.3479853479854,759.1208791208792,876.7765567765568,543.5531135531136,0.134827,0.157471,0.989014,-0.373840,-1.689758,0.635529,1241025.641026,155845421.245421,113221025.641026,90.667343,1,1,1,1,1,60.000000
2025-05-02 15:17:41.547,0.8466176482850228,0.9101173732433956,1.272275441143803,0.7515432243019385,0.6517521580230177,1.048343207065581,0.5044889549746804,0.4959439189558507,0.7481081751893586,0.9051208620311955,0.6868155641844614,0.5801268687806627,0.562076592159202,0.7762166373616864,0.6021967605118299,0.5008077235886916,0.4376995990525078,0.4161255859564841,-0.02979884077781035,0.320651824930391,731.7216117216118,713.5897435897436,796.5934065934066,728.0952380952381,645.8974358974359,0.147888,0.151062,0.972961,2.781372,-2.175751,-0.598145,1242637.362637,156013846.153846,113059853.479853,89.177635,1,2,1,1,2,60.000000
2025-05-02 15:17:41.926,,,,,,,,,,,,,,,,,,,,,,,,,,,,,,,,,,,,,,,,,,/muse/elements/blink
2025-05-02 15:17:42.553,0.8466176482850228,0.9101173732433956,1.272275441143803,0.7515432243019385,0.6517521580230177,1.048343207065581,0.5044889549746804,0.4959439189558507,0.7481081751893586,0.9051208620311955,0.6868155641844614,0.5801268687806627,0.562076592159202,0.7762166373616864,0.6021967605118299,0.5008077235886916,0.4376995990525078,0.4161255859564841,-0.02979884077781035,0.320651824930391,724.8717948717949,722.4542124542124,752.2710622710623,713.5897435897436,580.2197802197802,0.133545,0.148254,0.988098,0.448608,-1.315918,0.553284,1239413.919414,155929230.769231,112680293.040293,90.049698,1,2,1,1,2,60.000000
2025-05-02 15:17:43.555,0.6075878975460528,0.9587932183909337,1.272275441143803,0.7515432243019385,0.2056443971189642,0.7078123649102706,0.5044889549746804,0.4959439189558507,0.4752699823535542,0.4739142966863882,0.6868155641844614,0.5801268687806627,0.5497505900969081,0.3557507421048903,0.6021967605118299,0.5008077235886916,0.358292334196687,0.5283815475779632,-0.02979884077781035,0.320651824930391,786.5201465201466,764.3589743589744,772.8205128205128,757.9120879120879,752.2710622710623,0.120056,0.149475,0.987122,0.785065,-1.667328,-0.358887,1243443.223443,155546446.886447,112628717.948718,92.730362,1,1,1,1,1,60.000000
2025-05-02 15:17:43.848,,,,,,,,,,,,,,,,,,,,,,,,,,,,,,,,,,,,,,,,,,/muse/elements/blink
2025-05-02 15:17:44.546,0.6075878975460528,0.9587932183909337,1.272275441143803,0.7515432243019385,0.2056443971189642,0.7078123649102706,0.5044889549746804,0.4959439189558507,0.4752699823535542,0.4739142966863882,0.6868155641844614,0.5801268687806627,0.5497505900969081,0.3557507421048903,0.6021967605118299,0.5008077235886916,0.358292334196687,0.5283815475779632,-0.02979884077781035,0.320651824930391,776.0439560439561,789.3406593406594,532.2710622710623,778.4615384615385,656.3736263736264,0.127563,0.148438,0.987488,0.912170,-1.360779,-0.403748,1236996.336996,155335311.355311,112654505.494505,95.218742,1,1,1,1,1,60.000000
2025-05-02 15:17:45.294,,,,,,,,,,,,,,,,,,,,,,,,,,,,,,,,,,,,,,,,,,/muse/elements/blink
2025-05-02 15:17:45.547,0.6518472219813931,0.9587932183909337,1.272275441143803,0.7515432243019385,0.2237643134561526,0.7078123649102706,0.5044889549746804,0.4959439189558507,0.4640377768178319,0.4739142966863882,0.6868155641844614,0.5801268687806627,0.4859211162934436,0.3557507421048903,0.6021967605118299,0.5008077235886916,0.3726808045475274,0.5283815475779632,-0.02979884077781035,0.320651824930391,811.0989010989011,832.8571428571429,810.2930402930403,799.0109890109891,605.6043956043957,0.131470,0.153198,0.987915,1.121521,-2.033691,0.261688,1241831.501832,155417509.157509,113089670.329670,92.144943,1,1,1,1,1,60.000000
2025-05-02 15:17:46.548,0.6518472219813931,0.9587932183909337,1.272275441143803,0.7515432243019385,0.2237643134561526,0.7078123649102706,0.5044889549746804,0.4959439189558507,0.4640377768178319,0.4739142966863882,0.6868155641844614,0.5801268687806627,0.4859211162934436,0.3557507421048903,0.6021967605118299,0.5008077235886916,0.3726808045475274,0.5283815475779632,-0.02979884077781035,0.320651824930391,898.5347985347986,780.0732600732601,670.0732600732601,884.8351648351648,884.4322344322345,0.128052,0.157593,0.985535,1.039276,-1.286011,0.284119,1254725.274725,155914725.274725,113448278.388278,92.144943,1,2,1,1,2,60.000000
2025-05-02 15:17:47.050,,,,,,,,,,,,,,,,,,,,,,,,,,,,,,,,,,,,,,,,,,/muse/elements/blink
2025-05-02 15:17:47.547,0.6518472219813931,0.9587932183909337,1.272275441143803,0.7515432243019385,0.2237643134561526,0.7078123649102706,0.5044889549746804,0.4959439189558507,0.4640377768178319,0.4739142966863882,0.6868155641844614,0.5801268687806627,0.4859211162934436,0.3557507421048903,0.6021967605118299,0.5008077235886916,0.3726808045475274,0.5283815475779632,-0.02979884077781035,0.320651824930391,731.7216117216118,745.0183150183151,757.5091575091575,716.4102564102565,691.025641025641,0.131531,0.154907,0.985840,0.186920,-0.762634,0.314026,1253919.413919,156109743.589744,113484542.124542,89.978363,1,2,1,1,2,60.000000
2025-05-02 15:17:48.556,0.6518472219813931,0.9587932183909337,1.272275441143803,0.7515432243019385,0.2237643134561526,0.7078123649102706,0.5044889549746804,0.4959439189558507,0.4640377768178319,0.4739142966863882,0.6868155641844614,0.5801268687806627,0.4859211162934436,0.3557507421048903,0.6021967605118299,0.5008077235886916,0.3726808045475274,0.5283815475779632,-0.02979884077781035,0.320651824930391,777.6556776556777,796.1904761904763,800.2197802197802,761.5384615384615,595.5311355311355,0.128174,0.150818,0.993042,0.545807,-0.800018,0.231781,1267619.047619,156576336.996337,113698901.098901,90.564323,1,2,1,1,2,60.000000
2025-05-02 15:17:49.344,,,,,,,,,,,,,,,,,,,,,,,,,,,,,,,,,,,,,,,,,,/muse/elements/blink
2025-05-02 15:17:49.546,0.780697135432481,0.9587932183909337,1.272275441143803,0.6413456315659758,0.5966406757825788,0.7078123649102706,0.5044889549746804,0.5624382663432872,0.5948806945365499,0.4739142966863882,0.6868155641844614,0.5883991526987457,0.4732918744412969,0.3557507421048903,0.6021967605118299,0.5841152458881659,-0.1945385708460698,0.5283815475779632,-0.02979884077781035,-0.2275231035613389,808.6813186813187,814.7252747252747,821.978021978022,771.2087912087912,630.989010989011,0.131470,0.156433,0.982971,0.867310,-1.450500,0.897217,1267619.047619,156384542.124542,113412014.652015,90.585281,1,1,1,1,1,60.000000
2025-05-02 15:17:49.673,,,,,,,,,,,,,,,,,,,,,,,,,,,,,,,,,,,,,,,,,,/muse/elements/blink
2025-05-02 15:17:50.555,0.780697135432481,0.9587932183909337,1.272275441143803,0.8001387772736731,0.5966406757825788,0.7078123649102706,0.5044889549746804,0.6747373577032301,0.5948806945365499,0.4739142966863882,0.6868155641844614,0.5736441181163318,0.4732918744412969,0.3557507421048903,0.6021967605118299,0.5579048447983941,-0.1945385708460698,0.5283815475779632,-0.02979884077781035,-0.2763585859140524,788.1318681318681,811.5018315018315,826.8131868131868,805.4578754578755,745.8241758241759,0.127319,0.149231,0.983948,0.822449,-0.620575,-0.097198,1253919.413919,156014652.014652,112940586.080586,89.801331,1,1,1,1,1,60.000000
2025-05-02 15:17:51.559,0.1853565051785369,0.8908487601642475,1.272275441143803,0.2328942601762427,0.4058985165069844,0.6450032321727506,0.5044889549746804,0.1294989630959555,0.8082176004635109,0.3277283920190608,0.6868155641844614,0.5984399527909937,0.3615729594447561,0.7876345399916745,0.6021967605118299,0.4883700910581847,0.1078334334133219,0.3850622478319373,-0.02979884077781035,0.0924426206326265,818.3516483516484,819.1575091575091,819.1575091575091,796.996336996337,533.8827838827839,0.124084,0.157837,0.984375,0.867310,-1.472931,0.478516,1259560.439560,155975164.835165,112993772.893773,89.415154,1,1,1,1,1,60.000000
2025-05-02 15:17:51.917,,,,,,,,,,,,,,,,,,,,,,,,,,,,,,,,,,,,,,,,,,/muse/elements/blink
2025-05-02 15:17:52.547,0.2108952394527958,0.922445372168795,1.074083435250396,0.1194538278750464,0.1812687241600722,0.5979175238064582,0.5199509465352694,0.02204480664150565,0.8207059141117733,0.3106716151828087,0.5792454984763044,0.5334139154922324,0.3958020483708946,0.7897737516512507,0.7339750703889804,0.4543190152205486,0.06354602682477416,0.4178550008569112,0.1102767495838382,0.1077205755667568,819.96336996337,836.0805860805862,832.8571428571429,807.0695970695971,586.6666666666666,0.124512,0.152588,0.985718,0.029907,-0.717773,-0.403748,1270842.490842,156092014.652015,113160586.080586,89.407494,1,1,1,1,1,60.000000
2025-05-02 15:17:53.135,,,,,,,,,,,,,,,,,,,,,,,,,,,,,,,,,,,,,,,,,,/muse/elements/blink
2025-05-02 15:17:53.314,,,,,,,,,,,,,,,,,,,,,,,,,,,,,,,,,,,,,,,,,,/muse/elements/blink
2025-05-02 15:17:53.511,,,,,,,,,,,,,,,,,,,,,,,,,,,,,,,,,,,,,,,,,,/muse/elements/blink
2025-05-02 15:17:53.547,0.2800238064397081,1.016815953787451,1.072819135916412,0.03290700350714033,0.03457627562086922,0.5813014259633679,0.4079141086449714,-0.04890331770329837,0.7411393782987384,0.2339453108358376,0.559787677031871,0.4004062461159625,0.4185964223525274,0.7907135994990719,0.490237308008622,0.417582018063275,0.0457866383585542,0.4598599813238102,0.2574350632173184,0.1430437206324453,703.919413919414,856.6300366300367,817.1428571428571,721.6483516483516,747.4358974358975,0.120911,0.159424,0.983154,0.553284,-1.510315,0.717773,1276483.516484,156297509.157509,113306446.886447,86.445816,1,1,1,1,1,60.000000
2025-05-02 15:17:54.230,,,,,,,,,,,,,,,,,,,,,,,,,,,,,,,,,,,,,,,,,,/muse/elements/blink
2025-05-02 15:17:54.549,0.2800238064397081,1.016815953787451,1.044121863072972,0.03290700350714033,0.03457627562086922,0.5813014259633679,0.1997199648492354,-0.04890331770329837,0.7411393782987384,0.2339453108358376,0.4107575829749091,0.4004062461159625,0.4185964223525274,0.7907135994990719,0.4574648971299043,0.417582018063275,0.0457866383585542,0.4598599813238102,0.2510410937601832,0.1430437206324453,842.9304029304029,847.7655677655678,828.8278388278388,815.934065934066,591.0989010989011,0.118286,0.160950,0.983215,0.800018,-0.874786,-0.269165,1282930.402930,156536849.816850,113428131.868132,88.126854,1,2,1,1,2,60.000000
2025-05-02 15:17:55.250,,,,,,,,,,,,,,,,,,,,,,,,,,,,,,,,,,,,,,,,,,/muse/elements/blink
2025-05-02 15:17:55.426,,,,,,,,,,,,,,,,,,,,,,,,,,,,,,,,,,,,,,,,,,/muse/elements/blink
2025-05-02 15:17:55.551,0.2800238064397081,1.016815953787451,1.044121863072972,0.03290700350714033,0.03457627562086922,0.5813014259633679,0.1997199648492354,-0.04890331770329837,0.7411393782987384,0.2339453108358376,0.4107575829749091,0.4004062461159625,0.4185964223525274,0.7907135994990719,0.4574648971299043,0.417582018063275,0.0457866383585542,0.4598599813238102,0.2510410937601832,0.1430437206324453,842.1245421245421,773.2234432234433,781.2820512820513,824.3956043956044,1429.59706959707,0.121277,0.157898,0.987366,0.635529,-0.000000,0.261688,1285347.985348,156765714.285714,113383003.663004,88.903946,1,2,1,1,2,60.000000
2025-05-02 15:17:56.547,0.2800238064397081,1.016815953787451,1.044121863072972,0.03290700350714033,0.03457627562086922,0.5813014259633679,0.1997199648492354,-0.04890331770329837,0.7411393782987384,0.2339453108358376,0.4107575829749091,0.4004062461159625,0.4185964223525274,0.7907135994990719,0.4574648971299043,0.417582018063275,0.0457866383585542,0.4598599813238102,0.2510410937601832,0.1430437206324453,798.2051282051282,823.1868131868132,818.3516483516484,808.6813186813187,651.941391941392,0.127686,0.160278,0.986328,-0.149536,-2.033691,-0.366364,1286959.706960,156896263.736264,113313699.633700,89.896263,1,2,1,1,2,60.000000
2025-05-02 15:17:57.547,0.02763526480440752,1.016815953787451,0.507177680415439,0.4718376466427666,-0.07640243784357004,0.5813014259633679,0.2671542039310128,-0.1195373360066492,0.2363356998173113,0.2339453108358376,0.4122094908343394,0.4565881846402337,0.5283919301732728,0.7907135994990719,0.2333990994838696,0.1314944234593915,0.3208764919721453,0.4598599813238102,0.05176718112587322,-0.06057643601990369,782.893772893773,842.9304029304029,808.6813186813187,806.6666666666667,608.4249084249085,0.123596,0.157532,0.979736,-0.164490,-0.366364,-1.360779,1280512.820513,156535238.095238,112901098.901099,91.989861,1,1,1,1,1,60.000000
2025-05-02 15:17:58.547,0.06611630199065202,0.8544847777956313,1.003520365822251,0.3510791155727724,0.01958475469523462,0.4290412378625834,0.2209923244463988,0.2495603349689173,0.4245148308915495,0.4942013097465264,0.5173783692964031,0.5619692632680555,0.5772935681013565,0.7241828743543373,0.3948761130846264,0.1716711667288432,0.1116212855696365,0.3632116212724722,-0.1482091012159727,-0.1150981923062835,828.021978021978,828.8278388278388,818.7545787545788,805.8608058608058,706.3369963369963,0.118469,0.155212,0.987000,-0.112152,-1.652374,-0.127106,1278095.238095,156432893.772894,112821318.681319,90.644768,1,1,1,1,1,60.000000
2025-05-02 15:17:59.547,0.03602380561818643,0.8740544102417445,1.288937557102133,0.216983779702451,0.3206386630276204,0.4259513171223899,0.3466756058002447,0.1659431281825787,0.2840911811638751,0.2690581498260874,0.610295451913762,0.6150643478877625,0.2843430430769759,0.5619970785377151,0.4211617773552442,0.1810585466333153,0.08233007476573748,0.3181988388675718,-0.1476984872471872,-0.0709536341792126,792.5641025641025,845.3479853479854,829.6336996336996,803.4432234432235,681.7582417582418,0.121033,0.154663,0.986694,0.082245,-1.271057,-0.657959,1279706.959707,156162930.402930,112814065.934066,86.462479,1,1,1,1,1,60.000000
2025-05-02 15:18:00.558,0.04281742944978158,0.8202199539151511,0.9548913056120156,0.3017908595456457,0.1483694107451053,0.3111555957802669,0.4044943565550821,-0.03813190144210773,0.4535688852078946,0.2390280270711598,0.4941131565164765,0.6723059026480794,0.3384934267929587,0.454651242125843,0.3354107428644554,0.3807065419237252,0.182142271880478,0.2905343063821916,-0.1371980744450349,-0.2279348198475005,841.7216117216118,836.8864468864469,844.9450549450549,824.7985347985348,550.4029304029305,0.126526,0.156128,0.987366,0.433655,0.134583,-0.702820,1286153.846154,156218534.798535,112835824.175824,85.432838,1,1,1,1,1,60.000000
2025-05-02 15:18:01.546,0.2760603022637903,0.7049089504421845,0.8356402497106018,0.3867366039956033,-0.07704300856508861,0.2430369422407064,0.345141181926885,-0.191037191268364,0.5263679198766219,0.432263924434957,0.3577344608278271,0.7162992629150614,0.466002418586838,0.420829597699571,0.2576065202593413,0.2972808976494507,0.1231929060410317,0.08958313573734966,-0.231862871533492,-0.139939067819016,860.6593406593407,833.6630036630037,784.9084249084249,841.7216117216118,887.2527472527473,0.115540,0.143005,0.987000,0.583191,-2.250519,-1.607513,1294212.454212,156714945.054945,113150109.890110,86.853462,1,1,1,1,1,60.000000
2025-05-02 15:18:02.547,0.8711180982729295,0.9126842235900946,1.03908907741859,0.5557964546749629,0.3668243622499066,0.2636315028184245,0.222648622475387,-0.191150137725633,0.4341840876556216,0.3539580228480699,0.3279984905066342,0.4005142668188206,0.4606424805889467,0.3882692761498245,0.1261296869280236,0.1251377600258298,0.08797935464627053,0.0614649927404173,-0.3310287791368536,-0.1816587017111886,767.5824175824176,782.4908424908425,795.3846153846154,784.5054945054945,634.6153846153846,0.111084,0.154297,0.986389,0.373840,-1.517792,0.373840,1291794.871795,156703663.003663,113079194.139194,87.209236,1,1,1,1,1,60.000000
2025-05-02 15:18:02.899,,,,,,,,,,,,,,,,,,,,,,,,,,,,,,,,,,,,,,,,,,/muse/elements/blink
2025-05-02 15:18:03.547,1.12877217525656,0.9427654060640119,1.085699235579126,0.6463942527559434,0.5626152156873077,0.3604182327050297,-0.02227059699775976,-0.2235711070925115,0.3123322550352904,-0.01622787135309435,0.3029539022702359,0.3289111710040707,0.2830097451317382,0.4326950452361458,0.06025990770407699,0.08569587395659255,-0.02845843089957741,0.1663439234613198,-0.5007547530683596,-0.262449328387807,774.0293040293041,817.948717948718,847.3626373626374,800.2197802197802,625.7509157509157,0.117554,0.153259,0.984375,0.620575,-1.398163,-0.127106,1278095.238095,156474798.534799,112582783.882784,87.209236,1,1,1,1,1,60.000000
2025-05-02 15:18:04.546,0.350494228197767,0.9427654060640119,1.085699235579126,0.5861524998581584,0.03590422156255851,0.3604182327050297,-0.02227059699775976,0.01422267994140172,0.4869798935120188,-0.01622787135309435,0.3029539022702359,0.6222760683251954,0.4176405090436721,0.4326950452361458,0.06025990770407699,0.4437403739356404,0.08298129472583886,0.1663439234613198,-0.5007547530683596,0.05564219592034201,835.6776556776557,765.9706959706959,933.992673992674,826.4102564102565,762.7472527472528,0.120483,0.156250,0.984802,0.717773,-1.263580,0.396271,1282124.542125,156332161.172161,112932527.472527,87.209236,1,1,1,1,1,60.000000
2025-05-02 15:18:04.571,,,,,,,,,,,,,,,,,,,,,,,,,,,,,,,,,,,,,,,,,,/muse/elements/blink
2025-05-02 15:18:05.547,0.2470173878633257,0.9427654060640119,1.085699235579126,0.6118095883361555,0.02730463079209888,0.3604182327050297,-0.02227059699775976,0.03007258645907917,0.4171816988914951,-0.01622787135309435,0.3029539022702359,0.5111113299995514,0.399751754956156,0.4326950452361458,0.06025990770407699,0.3974514318705691,0.0637164629091394,0.1663439234613198,-0.5007547530683596,0.03406652088948174,866.7032967032967,845.7509157509157,750.2564102564103,828.4249084249085,526.2271062271062,0.123779,0.163635,0.991333,0.777588,-1.764526,-0.284119,1286153.846154,156461098.901099,112885787.545788,87.209236,1,1,1,1,1,60.000000
2025-05-02 15:18:06.554,1.095787164366121,0.9427654060640119,1.085699235579126,0.9316678511676949,0.2608501700985674,0.3604182327050297,-0.02227059699775976,0.1134304070513225,0.6652401747284555,-0.01622787135309435,0.3029539022702359,0.6240602394502691,0.5037948433416423,0.4326950452361458,0.06025990770407699,0.3478610762150999,0.1746421081024453,0.1663439234613198,-0.5007547530683596,-0.128049051043648,834.0659340659341,823.1868131868132,786.9230769230769,791.3553113553114,613.2600732600732,0.125366,0.159851,0.981995,0.216827,-0.927124,-0.553284,1290989.010989,156476410.256410,113052600.732601,87.209236,1,1,1,1,1,60.000000
2025-05-02 15:18:07.327,,,,,,,,,,,,,,,,,,,,,,,,,,,,,,,,,,,,,,,,,,/muse/elements/blink
2025-05-02 15:18:07.546,0.936690903703675,0.9427654060640119,1.085699235579126,0.9372334225820084,0.3361461555086399,0.3604182327050297,-0.02227059699775976,0.04580960726570019,0.6104111970367503,-0.01622787135309435,0.3029539022702359,0.6257077084423418,0.5205975138718099,0.4326950452361458,0.06025990770407699,0.330845102773196,0.24128188328858,0.1663439234613198,-0.5007547530683596,-0.1275572428646891,797.3992673992674,806.6666666666667,830.0366300366301,784.9084249084249,813.919413919414,0.116699,0.164307,0.991272,0.672913,-1.293488,-0.261688,1297435.897436,156620659.340659,113236336.996337,87.209236,1,1,1,1,1,60.000000
2025-05-02 15:18:08.559,0.6942616551972677,0.9427654060640119,1.085699235579126,0.8590002813323148,0.2316071421026499,0.3604182327050297,-0.02227059699775976,-0.0678005519415764,0.5100273666802372,-0.01622787135309435,0.3029539022702359,0.6202876916674886,0.5531422826569369,0.4326950452361458,0.06025990770407699,0.3916822480229328,0.2652560157268282,0.1663439234613198,-0.5007547530683596,-0.1712041343379103,797.3992673992674,812.7106227106227,826.8131868131868,795.3846153846154,657.1794871794872,0.117737,0.168884,0.987915,1.278534,-1.577606,0.590668,1300659.340659,156633553.113553,113116263.736264,85.924515,1,1,1,1,1,60.000000
2025-05-02 15:18:09.558,0.4946793770390557,0.8132230898521662,0.8309980763064313,0.4620215722370999,0.3835207028661931,0.1647971452034771,0.2422328430536126,0.2892000571157499,0.6111574286147237,0.1885412043424501,0.5521736986650934,0.609487777807775,0.2680037141191682,0.3706984687258482,0.4446011226310884,0.1785627034423751,-0.03339925159363084,0.2325093112483233,0.09016308118134202,-0.08922366813671258,818.7545787545788,833.6630036630037,820.3663003663004,789.7435897435897,705.1282051282052,0.110657,0.162354,0.986633,0.650482,-1.704712,0.022430,1304688.644689,156601318.681319,113071941.391941,84.199356,1,1,1,1,1,60.000000
2025-05-02 15:18:10.373,,,,,,,,,,,,,,,,,,,,,,,,,,,,,,,,,,,,,,,,,,/muse/elements/blink
2025-05-02 15:18:10.546,0.6794932764117422,1.004414458280869,0.7075144717755869,0.3400464673496718,0.5860097751892441,0.1607231666954628,0.3201136004241486,0.4060988279448436,0.6878520325461039,0.1578932963632049,0.2946655071475859,0.5534937808143464,0.3487664894161064,0.3282748789374592,0.3796576880639425,0.04335245951715447,-0.09229144695355097,0.3843214762410169,-0.0445070539055132,0.04550541241708895,988.3882783882784,774.4322344322345,770.8058608058608,956.1538461538462,665.2380952380953,0.110901,0.160461,0.990234,0.657959,-1.757050,0.022430,1305494.505495,156835018.315018,113023589.743590,83.582588,1,1,1,1,1,60.000000
2025-05-02 15:18:11.554,0.7356776060285518,0.9924152248441402,0.6806900809132278,0.3669762822722942,0.5090057412185774,-0.2676813046223042,0.425404357867218,0.3162660660368778,0.5278219999433079,-0.06095792868670406,0.166291872898323,0.03445379787149488,0.4111615571337103,0.3474540155154425,0.4567939568860332,0.06883440468033572,-0.1602472468239363,0.3971400819189053,-0.1303119930059821,-0.04340586338012292,732.9304029304029,796.996336996337,767.1794871794872,745.4212454212454,673.2967032967033,0.112976,0.163269,0.985229,-0.291595,-1.091614,-0.882263,1300659.340659,156631941.391941,112659340.659341,84.248680,1,1,1,1,1,60.000000
2025-05-02 15:18:12.548,0.7356776060285518,0.9924152248441402,0.6806900809132278,0.6146060500157121,0.5090057412185774,-0.2676813046223042,0.425404357867218,0.305731876865308,0.5278219999433079,-0.06095792868670406,0.166291872898323,0.5110973699986986,0.4111615571337103,0.3474540155154425,0.4567939568860332,0.5369775190887655,-0.1602472468239363,0.3971400819189053,-0.1303119930059821,0.2672096366256721,788.5347985347986,723.2600732600732,711.1721611721612,762.3443223443223,753.0769230769231,0.117615,0.163147,0.992065,0.366364,-1.540222,-0.127106,1300659.340659,156395018.315018,112705274.725275,84.298294,1,1,1,1,1,60.000000
2025-05-02 15:18:12.624,,,,,,,,,,,,,,,,,,,,,,,,,,,,,,,,,,,,,,,,,,/muse/elements/blink
2025-05-02 15:18:12.929,,,,,,,,,,,,,,,,,,,,,,,,,,,,,,,,,,,,,,,,,,/muse/elements/blink
2025-05-02 15:18:13.546,0.7356776060285518,0.9924152248441402,0.6806900809132278,0.6146060500157121,0.5090057412185774,-0.2676813046223042,0.425404357867218,0.305731876865308,0.5278219999433079,-0.06095792868670406,0.166291872898323,0.5110973699986986,0.4111615571337103,0.3474540155154425,0.4567939568860332,0.5369775190887655,-0.1602472468239363,0.3971400819189053,-0.1303119930059821,0.2672096366256721,773.6263736263736,776.0439560439561,811.9047619047619,766.3736263736264,641.8681318681319,0.115967,0.162842,0.985901,0.426178,-1.457977,0.373840,1290989.010989,155843809.523810,112605347.985348,84.298294,1,1,1,1,1,60.000000
2025-05-02 15:18:14.555,0.6839567949469976,0.9924152248441402,0.6806900809132278,0.6146060500157121,0.2039150128727311,-0.2676813046223042,0.425404357867218,0.305731876865308,0.5333608073197736,-0.06095792868670406,0.166291872898323,0.5110973699986986,0.5922386494907272,0.3474540155154425,0.4567939568860332,0.5369775190887655,0.344593336780449,0.3971400819189053,-0.1303119930059821,0.2672096366256721,772.014652014652,746.6300366300367,876.7765567765568,777.2527472527473,666.0439560439561,0.122253,0.156921,0.982727,0.276642,-2.960815,-1.465454,1294212.454212,155672967.032967,113496630.036630,85.249214,1,1,1,1,1,60.000000
2025-05-02 15:18:15.546,0.9066648357066184,0.9924152248441402,0.6806900809132278,0.7332145960098289,0.6349475993763043,-0.2676813046223042,0.425404357867218,0.5951339187765587,0.7618918677693097,-0.06095792868670406,0.166291872898323,0.7118831224904976,0.6233880173487342,0.3474540155154425,0.4567939568860332,0.5769324388571206,0.2518555924934513,0.3971400819189053,-0.1303119930059821,-0.02804075789514988,789.7435897435897,815.5311355311355,727.2893772893773,818.3516483516484,715.2014652014652,0.126770,0.159851,0.983398,0.575714,-1.734619,0.269165,1287765.567766,155636703.296703,113357216.117216,87.214378,1,1,1,1,1,60.000000
2025-05-02 15:18:16.546,0.9313016283512899,0.9924152248441402,0.6806900809132278,0.7184366011312433,0.4837245855366025,-0.2676813046223042,0.425404357867218,0.2974105270358076,0.5081500341383099,-0.06095792868670406,0.166291872898323,0.4689637464592836,0.6167112295032038,0.3474540155154425,0.4567939568860332,0.4947854698051776,0.09919900227468748,0.3971400819189053,-0.1303119930059821,-0.2115406974148137,777.2527472527473,790.1465201465202,767.5824175824176,787.3260073260074,879.1941391941392,0.107056,0.157104,0.984314,0.598145,-1.233673,-0.553284,1293406.593407,155818827.838828,113383809.523810,84.975342,1,1,1,1,1,60.000000
2025-05-02 15:18:17.546,0.6266472703805899,1.120283053465923,0.9615038194690423,0.3749384100813519,0.02869320238295495,0.5167507360095187,0.693022571961002,0.01716349350396981,0.5158014223698032,0.3088553618003809,0.7326553756764534,0.2406213315138468,0.4256870202084667,0.1353415745684553,0.7205122824349426,0.2582808896123152,0.08007151725372381,0.2224804101297195,0.05360840392684677,-0.06778738338594485,791.7582417582418,844.5421245421246,791.3553113553114,811.0989010989011,570.1465201465202,0.114502,0.163818,0.986633,0.605621,-1.547699,-0.523376,1299047.619048,156266886.446886,113557069.597070,84.975342,1,1,1,1,1,60.000000
2025-05-02 15:18:18.288,,,,,,,,,,,,,,,,,,,,,,,,,,,,,,,,,,,,,,,,,,/muse/elements/blink
2025-05-02 15:18:18.546,0.3608439367399184,1.163566158308443,0.9779324143451393,0.5940894448832181,0.1377603686662386,0.4680346390806119,0.743015212907755,0.140804966357455,0.4111780386317244,0.3851519426715052,0.8900246650628788,0.3769691630514603,0.5446680785455148,0.3499853025531014,0.6883357416533165,0.2738470220180405,0.08127403503660752,0.2593569020266271,0.034395994587495,-0.08822388553873073,776.4468864468864,803.040293040293,859.4505494505495,801.8315018315019,853.8095238095239,0.122131,0.161560,0.987488,1.084137,-1.899109,0.485992,1308717.948718,156714945.054945,113963223.443223,107.788681,1,1,1,1,1,60.000000
2025-05-02 15:18:19.546,0.3948096781023671,1.152619402725592,0.9453413602402229,0.6781432947255586,0.02583957474772934,0.2900298919286707,0.7752870505517692,0.2327659921592831,0.3827705144121184,0.157104862221534,0.8265943005245451,0.3598466522769285,0.5418398323764106,0.5204203406527262,0.5858839181042291,0.3119892722170196,0.04694697539737958,0.2861543779597314,-0.01138601486559694,-0.1109258844304627,776.4468864468864,807.4725274725275,821.1721611721612,765.5677655677656,688.6080586080586,0.114136,0.156311,0.988403,0.717773,-1.637421,0.269165,1303882.783883,156483663.003663,113403150.183150,106.019569,1,1,1,1,1,60.000000
2025-05-02 15:18:20.546,0.1075826176040178,1.152619402725592,0.9453413602402229,0.4025492951013638,0.2261440603627567,0.2900298919286707,0.7752870505517692,0.2278833368090182,-0.01250082058642739,0.157104862221534,0.8265943005245451,0.2893993013457521,0.4013321388911475,0.5204203406527262,0.5858839181042291,0.43352394651873,0.3912066980408239,0.2861543779597314,-0.01138601486559694,0.2920812058475851,831.2454212454213,780.4761904761905,763.1501831501831,863.0769230769231,624.9450549450549,0.119385,0.155579,0.992493,0.485992,-1.398163,-0.201874,1295018.315018,156165347.985348,112953479.853480,106.019569,1,1,1,1,1,60.000000
2025-05-02 15:18:20.635,,,,,,,,,,,,,,,,,,,,,,,,,,,,,,,,,,,,,,,,,,/muse/elements/blink
2025-05-02 15:18:21.546,0.2563989736094124,1.152619402725592,0.9453413602402229,0.3869627788740303,0.1931490391791962,0.2900298919286707,0.7752870505517692,0.2991062918535644,-0.2538333312693178,0.157104862221534,0.8265943005245451,0.1802500981096931,0.3648568153619091,0.5204203406527262,0.5858839181042291,0.4503908808745851,0.2994587287500887,0.2861543779597314,-0.01138601486559694,0.3484105231147767,828.4249084249085,827.2161172161173,818.7545787545788,794.5787545787546,801.4285714285714,0.124268,0.152344,0.987000,-0.000000,-1.428070,-0.665436,1292600.732601,155840586.080586,113066300.366300,106.019569,1,1,1,1,1,60.000000
2025-05-02 15:18:22.546,0.02027350154688346,0.4416771512346803,0.9453413602402229,0.1531633080837641,0.1446261724735118,0.07882349868144663,0.7752870505517692,-0.1746959708291502,0.3794202344543424,-0.1068944621036402,0.8265943005245451,0.3837983951972765,0.5601369014975922,0.5869253816523538,0.5858839181042291,0.3252442554247379,0.07753565930592297,0.1999500316965996,-0.01138601486559694,-0.1494839607684531,812.7106227106227,855.4212454212454,816.3369963369963,810.2930402930403,662.8205128205128,0.121094,0.148682,0.984863,0.276642,-1.405640,-0.530853,1291794.871795,155849450.549451,113143663.003663,108.661285,1,1,1,1,1,60.000000
2025-05-02 15:18:23.163,,,,,,,,,,,,,,,,,,,,,,,,,,,,,,,,,,,,,,,,,,/muse/elements/blink
2025-05-02 15:18:23.547,-0.02384855003032184,0.9686814072212138,0.9086259272086615,0.2547522029498061,0.2682305967111306,0.4533868532491876,0.4966627487342312,-0.09082340302687558,0.469919503261289,0.4843579774882047,0.3703548468420452,0.447911693723106,0.5362494807379732,0.4868082958236105,0.5358279551670768,0.3680328795532642,0.1014733727672198,0.2400599023242971,-0.1168172347949554,-0.08903875431561507,775.2380952380953,817.948717948718,906.5934065934066,796.996336996337,547.985347985348,0.110352,0.156128,0.992737,0.209351,-0.971985,0.276642,1286959.706960,155931648.351648,113167032.967033,118.095688,1,1,1,1,1,60.000000
2025-05-02 15:18:24.547,-0.06366352072431004,1.341948687581673,1.085473642170612,0.4191068142329676,0.3447322563610276,0.8121640778934239,0.6949773883455937,0.01440149872137317,0.3786950260356045,0.4843579774882047,0.3334899286817881,0.3520730417741431,0.4729583137226083,0.4771347414115134,0.4093845346958443,0.3473839882228797,0.182031896086687,0.4201591425829693,-0.1101871917150767,-0.003520256263909634,823.5897435897436,838.0952380952381,811.5018315018315,805.4578754578755,671.6849816849817,0.115845,0.158691,0.989380,0.104675,-1.517792,-0.321503,1286959.706960,156121831.501832,113139633.699634,103.809708,1,1,1,1,1,60.000000
2025-05-02 15:18:25.426,,,,,,,,,,,,,,,,,,,,,,,,,,,,,,,,,,,,,,,,,,/muse/elements/blink
2025-05-02 15:18:25.546,0.6406392237324373,0.7438103006319846,0.9747323658862159,0.7489307310862288,0.2209650623479879,0.5043107310922734,0.3966533394994625,0.3030799077238052,0.5451974952207356,0.4117116506413022,0.2253095547292353,0.585000202706677,0.5757193076766538,0.3949565587264925,0.1443531583858973,0.3085415386417407,0.07181854740581858,0.151613943080832,-0.2103447327555112,0.01320121925954513,895.3113553113553,740.989010989011,698.2783882783883,887.6556776556777,677.3260073260074,0.120789,0.152466,0.985718,0.986938,-2.190704,0.164490,1286153.846154,156378901.098901,113225860.805861,97.668236,1,1,1,1,1,60.000000
2025-05-02 15:18:25.620,,,,,,,,,,,,,,,,,,,,,,,,,,,,,,,,,,,,,,,,,,/muse/elements/blink
2025-05-02 15:18:26.546,0.7906367932209802,0.6710498179216284,0.9747323658862159,0.9155972165617232,0.3397610193862335,0.5542602443132963,0.3966533394994625,0.3999394825211766,0.5028170750516496,0.4117116506413022,0.2253095547292353,0.541191689991732,0.5140672831179109,0.317612699411444,0.1443531583858973,0.3586422166851652,0.1003670903720631,0.1831674728848386,-0.2103447327555112,0.08724543858422074,755.0915750915751,766.3736263736264,738.974358974359,780.4761904761905,593.919413919414,0.106567,0.156250,0.987610,1.024323,-1.682281,0.493469,1285347.985348,156406300.366300,112930109.890110,97.130463,1,1,1,1,1,60.000000
2025-05-02 15:18:27.352,,,,,,,,,,,,,,,,,,,,,,,,,,,,,,,,,,,,,,,,,,/muse/elements/blink
2025-05-02 15:18:27.548,0.7906367932209802,0.7709035031098658,0.9747323658862159,0.9155972165617232,0.3397610193862335,0.1842190071661317,0.3966533394994625,0.3999394825211766,0.5028170750516496,0.3352486606808783,0.2253095547292353,0.541191689991732,0.5140672831179109,0.4042635425653668,0.1443531583858973,0.3586422166851652,0.1003670903720631,0.08546410842451597,-0.2103447327555112,0.08724543858422074,835.2747252747253,776.0439560439561,754.6886446886447,797.8021978021978,602.3809523809524,0.109131,0.149231,0.985657,0.650482,-1.031799,-0.044861,1280512.820513,156270109.890110,112749597.069597,95.092804,1,1,1,1,1,60.000000
2025-05-02 15:18:28.468,,,,,,,,,,,,,,,,,,,,,,,,,,,,,,,,,,,,,,,,,,/muse/elements/blink
2025-05-02 15:18:28.546,0.7906367932209802,0.7719074768763124,0.9747323658862159,0.9155972165617232,0.3397610193862335,0.1902532183404561,0.3966533394994625,0.3999394825211766,0.5028170750516496,0.2610896825121207,0.2253095547292353,0.541191689991732,0.5140672831179109,0.3855009343754457,0.1443531583858973,0.3586422166851652,0.1003670903720631,0.1147063263321245,-0.2103447327555112,0.08724543858422074,764.3589743589744,763.956043956044,769.1941391941392,769.1941391941392,668.4615384615385,0.108582,0.154236,0.991272,0.672913,-1.525269,0.112152,1273260.073260,155721318.681319,112581172.161172,90.060547,1,2,1,1,2,60.000000
2025-05-02 15:18:29.546,0.7906367932209802,0.7719074768763124,0.9747323658862159,0.9155972165617232,0.3397610193862335,0.1902532183404561,0.3966533394994625,0.3999394825211766,0.5028170750516496,0.2610896825121207,0.2253095547292353,0.541191689991732,0.5140672831179109,0.3855009343754457,0.1443531583858973,0.3586422166851652,0.1003670903720631,0.1147063263321245,-0.2103447327555112,0.08724543858422074,766.7765567765568,784.9084249084249,812.3076923076924,778.8644688644689,587.0695970695971,0.108398,0.149475,0.989197,0.328979,-1.420593,0.037384,1272454.212454,155531135.531136,112693186.813187,87.770813,1,2,1,1,2,60.000000
2025-05-02 15:18:30.546,0.7621523195598245,0.7021836589903466,0.8817523981169101,0.3820156439547852,0.4286552637792301,0.6935137416476065,0.9895180182225629,0.5390608519809522,0.692085469791927,0.3971990722575028,0.5684037167397511,0.8200207317664265,0.6277424949207367,0.3800388509875858,0.5474933813880287,0.3782761988975248,0.3144362456629482,0.2959855977298194,0.1778266695291414,0.2141398794908458,822.3809523809524,805.0549450549451,793.7728937728938,791.3553113553114,689.8168498168499,0.107300,0.152405,0.991699,-0.598145,-0.762634,-0.590668,1268424.908425,155268424.908425,112659340.659341,86.538605,1,1,1,1,1,60.000000
2025-05-02 15:18:31.203,,,,,,,,,,,,,,,,,,,,,,,,,,,,,,,,,,,,,,,,,,/muse/elements/blink
2025-05-02 15:18:31.546,0.7923620187425398,0.7145370746369168,0.7959038468495353,0.3537948538750958,0.3604482188506545,0.7001915569364587,1.04030707127712,0.6053282752845298,0.6083013183729742,0.3979108576208241,0.5728016563894389,0.8200207317664265,0.7053556848283173,0.3795106460520341,0.5463807075826901,0.4791336413292405,0.392209545021048,0.3006973220712006,-0.006138295897392432,0.2327038749423202,786.1172161172161,832.8571428571429,823.992673992674,798.2051282051282,649.5238095238095,0.102356,0.154480,0.991577,0.239258,-1.659851,0.620575,1270842.490842,155423956.043956,112812454.212454,85.220993,1,1,1,1,1,60.000000
2025-05-02 15:18:32.313,,,,,,,,,,,,,,,,,,,,,,,,,,,,,,,,,,,,,,,,,,/muse/elements/blink
2025-05-02 15:18:32.546,0.7923620187425398,0.7373232970772813,0.7245825347703152,0.4929752490591796,0.3604482188506545,0.7910139642005831,0.9816842095557703,0.5293502271169688,0.6083013183729742,0.3381632877860141,0.5250367414312805,0.3303007165284341,0.7053556848283173,0.3979923890610464,0.5357215601150314,0.4379177807332247,0.392209545021048,0.2630115547425126,-0.2272576464625879,-0.02350805705840727,772.4175824175825,823.5897435897436,811.9047619047619,800.2197802197802,571.7582417582418,0.106445,0.157837,0.991211,0.590668,-1.069183,0.971985,1278095.238095,155739853.479853,112976849.816850,86.675171,1,1,1,1,1,60.000000
2025-05-02 15:18:33.550,0.7923620187425398,0.7373232970772813,0.7245825347703152,0.4929752490591796,0.3604482188506545,0.7910139642005831,0.9816842095557703,0.5293502271169688,0.6083013183729742,0.3381632877860141,0.5250367414312805,0.3303007165284341,0.7053556848283173,0.3979923890610464,0.5357215601150314,0.4379177807332247,0.392209545021048,0.2630115547425126,-0.2272576464625879,-0.02350805705840727,830.0366300366301,827.6190476190476,818.3516483516484,801.8315018315019,698.2783882783883,0.110962,0.152710,0.989807,0.986938,-1.046753,-0.127106,1287765.567766,156105714.285714,113095311.355311,88.179680,1,1,1,1,1,60.000000
2025-05-02 15:18:34.546,0.3205305542749535,0.8235201353803259,0.8949549048950668,-0.02302412780792239,0.5891542454363187,0.3402449038231559,0.2871001496304521,0.09049289064808615,0.3943787164007146,0.1699128310790923,0.2711942110991926,0.5318512924565876,0.4604750437078386,0.4880106471415316,0.3349885225446341,0.1660089710193677,0.1481998305674325,0.411901736009983,-0.1096588249398163,-0.06910807603241406,799.0109890109891,836.4835164835165,814.3223443223443,805.4578754578755,626.959706959707,0.104919,0.156921,0.991333,-0.523376,-1.218719,1.510315,1292600.732601,156359560.439560,113159780.219780,88.179680,1,1,1,1,1,60.000000
2025-05-02 15:18:35.450,,,,,,,,,,,,,,,,,,,,,,,,,,,,,,,,,,,,,,,,,,/muse/elements/blink
2025-05-02 15:18:35.551,-0.1498877196343878,0.7013281958868861,1.150228404463662,0.2788400631070856,0.2181599624580529,0.2420280539631108,0.4398439983169084,-0.1185309439526485,0.4604112973215406,0.1704882428977646,0.04289008657865541,0.2385334599738654,0.3903692131400846,0.5294663558746182,0.240887369135582,0.1146861991087962,0.03049997565138781,0.1542074954982232,-0.1138039849188134,-0.1369690517509534,909.0109890109891,768.3882783882784,692.6373626373627,891.6849816849817,697.8754578754579,0.111511,0.152893,0.988953,0.321503,-1.652374,-0.097198,1286959.706960,156325714.285714,112868058.608059,88.179680,1,1,1,1,1,60.000000
2025-05-02 15:18:36.546,-0.02918137418423435,0.7342723129910537,1.197453580810336,0.4789486987427181,0.1414328439930903,0.1551235901819248,0.4738919091622866,-0.07651791437265272,0.2979510717636709,0.09038716987942494,0.04258828577794451,0.1286934969151843,0.3315194925305325,0.3153712863547679,0.2077808448082535,0.1104834749298204,0.05228998470628962,-0.0115698217666848,-0.1155867607393243,-0.05367964460496064,770.4029304029305,805.8608058608058,813.5164835164835,784.1025641025641,1284.139194139194,0.100220,0.149597,0.993164,1.136475,-0.919647,-0.284119,1276483.516484,156030769.230769,112487692.307692,88.179680,1,1,1,1,1,60.000000
2025-05-02 15:18:37.004,,,,,,,,,,,,,,,,,,,,,,,,,,,,,,,,,,,,,,,,,,/muse/elements/blink
2025-05-02 15:18:37.557,-0.02918137418423435,0.7342723129910537,1.197453580810336,0.4789486987427181,0.1414328439930903,0.1551235901819248,0.4738919091622866,-0.07651791437265272,0.2979510717636709,0.09038716987942494,0.04258828577794451,0.1286934969151843,0.3315194925305325,0.3153712863547679,0.2077808448082535,0.1104834749298204,0.05228998470628962,-0.0115698217666848,-0.1155867607393243,-0.05367964460496064,754.6886446886447,766.3736263736264,803.4432234432235,751.0622710622711,896.9230769230769,0.101562,0.157104,0.992981,0.568237,-2.100983,0.119629,1263589.743590,155443296.703297,112266886.446886,88.179680,1,1,1,1,1,60.000000
2025-05-02 15:18:38.546,0.63068949874486,0.7342723129910537,1.197453580810336,0.2749275786138833,0.3128219814848618,0.1551235901819248,0.4738919091622866,0.5174304737725725,0.5238923722770003,0.09038716987942494,0.04258828577794451,0.4666207078587842,0.3561220094394673,0.3153712863547679,0.2077808448082535,0.2712705460620369,0.06004155659981393,-0.0115698217666848,-0.1155867607393243,-0.2604451471488565,747.8388278388279,804.6520146520147,804.6520146520147,783.6996336996338,595.934065934066,0.106812,0.151245,0.995117,0.545807,-1.158905,0.194397,1268424.908425,155361904.761905,112651282.051282,88.179680,1,1,1,1,1,60.000000
2025-05-02 15:18:39.546,0.7315005396338888,0.6906183167932547,1.166467106373181,0.5256805001990893,0.282854712306733,0.3353920773003171,0.3684896184972137,0.3373978977268262,0.5482549395255968,0.2565339311985037,0.5051079353446107,0.633232872212389,0.3644012710382053,0.5652555780991729,0.4196353028477512,0.1767432414960134,0.06596646188297926,0.2053188275751689,0.1621505700408525,-0.01586127214018146,827.2161172161173,840.9157509157509,841.3186813186813,803.040293040293,639.8534798534798,0.100708,0.151489,0.995178,0.261688,-1.891632,-0.583191,1274065.934066,155501318.681319,113117875.457875,85.823059,1,1,1,1,1,60.000000
2025-05-02 15:18:40.550,0.5439488922365889,0.7342165819620267,1.056010268436336,0.4772553751953356,0.2583541910335569,0.348963555325468,0.359344232321719,0.119289617837321,0.6383033450636779,0.3174536574166353,0.352650925630058,0.6963909481607057,0.5219027293323673,0.5553011697302601,0.3431312037794033,0.1524111138229496,0.03926426639398586,0.2400511359424929,0.07834425106038852,0.03897796009204364,761.1355311355312,815.5311355311355,821.5750915750916,790.5494505494506,604.7985347985348,0.101868,0.156311,0.993408,0.859833,-1.420593,0.261688,1258754.578755,155326446.886447,112586007.326007,85.296997,1,1,1,1,1,60.000000
2025-05-02 15:18:40.836,,,,,,,,,,,,,,,,,,,,,,,,,,,,,,,,,,,,,,,,,,/muse/elements/blink
2025-05-02 15:18:41.546,0.3974508873015836,0.8763246944437808,1.12003162003793,0.4086102383146323,0.3299798485746176,0.5623820015550762,0.3990269016600931,0.05312948030362554,0.6345336624909377,0.1811122169276566,0.3097470421879521,0.5151695541825695,0.5760476353856705,0.6146005506433307,0.3988676713364149,0.2886736022530188,0.05881925626678584,0.219397907572109,0.09092076615644154,-0.01057488396637034,768.7912087912088,852.1978021978023,817.948717948718,798.2051282051282,627.7655677655678,0.103027,0.160095,0.997009,0.814972,-1.674805,0.508423,1266813.186813,155808351.648352,112860805.860806,84.100189,1,1,1,1,1,60.000000
2025-05-02 15:18:42.547,0.2506757421790832,0.7635311930094818,0.6227208461284051,0.1056809286037577,0.4297060871394224,0.2284840852636842,0.2092709125752621,0.204085951609635,0.479614930071692,0.2306827775690743,0.1514860163993153,0.2080116437966782,0.6045966612064034,0.5295322290503226,0.3775696246034211,0.173557106591398,0.1094771887086916,0.3192973563292883,-0.2306472290111028,-0.01261484098948469,828.4249084249085,846.1538461538462,817.948717948718,804.6520146520147,712.7838827838829,0.106201,0.160034,0.994141,0.874786,-2.519684,-0.321503,1282124.542125,156090402.930403,112959120.879121,84.375626,1,1,1,1,1,60.000000
2025-05-02 15:18:42.951,,,,,,,,,,,,,,,,,,,,,,,,,,,,,,,,,,,,,,,,,,/muse/elements/blink
2025-05-02 15:18:43.545,0.2115702274476279,0.9155839250194551,0.5637914492326245,0.06325430416629829,0.4298423590668639,0.6388728824136037,0.2940590027794934,0.06421327993637663,0.4509274905636395,1.009907884006592,0.1327034578652086,0.2531102335309063,0.5908506061665476,0.6114392101306386,0.4289132898910211,0.2627222651227666,0.06010446666053056,0.4304090535082304,-0.2450956675156788,-0.004824822389683353,882.4175824175825,795.3846153846154,708.3516483516484,894.5054945054945,657.1794871794872,0.098206,0.154602,0.992737,0.687866,-1.435547,-0.500946,1284542.124542,156112161.172161,112719780.219780,84.176262,1,1,1,1,1,60.000000
2025-05-02 15:18:44.552,0.03415490341852966,1.05156096803132,0.3678464882598728,0.04520266993523732,0.4461178967056185,0.9641092321351307,0.3708066437279344,-0.1198797191071299,0.3186514531874119,1.008123825185761,-0.08226448567095812,0.1539244557823329,0.5971629372996585,0.6374448354778225,0.4753812754492744,0.3377112525446948,-0.01908939007781239,0.443901216775325,-0.2740681745913363,-0.05266541211027734,707.948717948718,790.5494505494506,792.5641025641025,740.5860805860806,799.0109890109891,0.100403,0.158813,0.992615,0.538330,-2.168274,0.074768,1282930.402930,155747912.087912,112367619.047619,84.122330,1,1,1,1,1,60.000000
2025-05-02 15:18:44.799,,,,,,,,,,,,,,,,,,,,,,,,,,,,,,,,,,,,,,,,,,/muse/elements/blink
2025-05-02 15:18:45.554,0.03415490341852966,1.075018816035868,0.3678464882598728,0.04520266993523732,0.4461178967056185,1.005728321172492,0.3708066437279344,-0.1198797191071299,0.3186514531874119,1.003861227159094,-0.08226448567095812,0.1539244557823329,0.5971629372996585,0.6379636571860079,0.4753812754492744,0.3377112525446948,-0.01908939007781239,0.3754853513622667,-0.2740681745913363,-0.05266541211027734,806.6666666666667,803.8461538461539,778.4615384615385,787.7289377289378,743.4065934065934,0.100708,0.151733,0.989197,0.665436,-1.525269,-0.448608,1274065.934066,155403809.523810,112199194.139194,83.361015,1,2,1,1,2,60.000000
2025-05-02 15:18:46.545,0.03415490341852966,1.075018816035868,0.3678464882598728,0.04520266993523732,0.4461178967056185,1.005728321172492,0.3708066437279344,-0.1198797191071299,0.3186514531874119,1.003861227159094,-0.08226448567095812,0.1539244557823329,0.5971629372996585,0.6379636571860079,0.4753812754492744,0.3377112525446948,-0.01908939007781239,0.3754853513622667,-0.2740681745913363,-0.05266541211027734,760.7326007326008,796.996336996337,812.7106227106227,777.2527472527473,649.92673992674,0.099487,0.156189,0.987915,0.523376,-1.039276,0.463562,1277289.377289,155064542.124542,112332161.172161,83.930885,1,2,1,1,2,60.000000
2025-05-02 15:18:47.562,0.9597236959325259,1.075018816035868,0.3678464882598728,0.04520266993523732,0.3526233547374298,1.005728321172492,0.3708066437279344,-0.1198797191071299,0.5775564387589636,1.003861227159094,-0.08226448567095812,0.1539244557823329,0.5784482693237686,0.6379636571860079,0.4753812754492744,0.3377112525446948,-0.2050931440754287,0.3754853513622667,-0.2740681745913363,-0.05266541211027734,772.8205128205128,795.3846153846154,805.8608058608058,755.4945054945055,641.4652014652015,0.098755,0.161499,0.992371,0.680389,-1.286011,0.433655,1278095.238095,155174139.194139,112656117.216117,88.163460,1,1,1,1,1,60.000000
