TimeStamp,Delta_TP9,Delta_AF7,Delta_AF8,Delta_TP10,Theta_TP9,Theta_AF7,Theta_AF8,Theta_TP10,Alpha_TP9,Alpha_AF7,Alpha_AF8,Alpha_TP10,Beta_TP9,Beta_AF7,Beta_AF8,Beta_TP10,Gamma_TP9,Gamma_AF7,Gamma_AF8,Gamma_TP10,RAW_TP9,RAW_AF7,RAW_AF8,RAW_TP10,AUX_RIGHT,Accelerometer_X,Accelerometer_Y,Accelerometer_Z,Gyro_X,Gyro_Y,Gyro_Z,PPG_Ambient,PPG_IR,PPG_Red,Heart_Rate,HeadBandOn,HSI_TP9,HSI_AF7,HSI_AF8,HSI_TP10,Battery,Elements
2025-05-02 21:05:18.530,,,,,,,,,,,,,,,,,,,,,,,,,,,,,,,,,,,,,,,,,,/muse/event/connected Muse-1C98
2025-05-02 21:05:18.598,,,,,,,,,,,,,,,,,,,,,,,,,,,,,,,,,,,,,,,,,,/muse/elements/jaw_clench
2025-05-02 21:05:19.266,,,,,,,,,,,,,,,,,,,,,,,,,,,,,,,,,,,,,,,,,,/muse/elements/jaw_clench
2025-05-02 21:05:19.458,,,,,,,,,,,,,,,,,,,,,,,,,,,,,,,,,,,,,,,,,,/muse/elements/blink
2025-05-02 21:05:19.532,1.265114964293685,0.4963731352972441,0,1.066500447125295,0.9483211111213155,-0.1654424584398443,0,0.6798293689554217,0.7908857488209493,0.6726369212805148,0,1.015184630635344,0.6638663222859136,1.234874070941014,0,1.257470654686092,0.3792576103708738,0.5058043094805982,0,0.6299894652177358,880,857.032967032967,775.2380952380953,838.901098901099,601.978021978022,-0.119019,-0.023438,1.000549,0.186920,-0.837402,-0.082245,412600.732601,127450109.890110,76040219.780220,78.370369,1,2,1,2,2,80.000000
2025-05-02 21:05:19.885,,,,,,,,,,,,,,,,,,,,,,,,,,,,,,,,,,,,,,,,,,/muse/elements/blink
2025-05-02 21:05:19.971,,,,,,,,,,,,,,,,,,,,,,,,,,,,,,,,,,,,,,,,,,/muse/elements/jaw_clench
2025-05-02 21:05:20.531,1.265114964293685,0.4963731352972441,0,1.066500447125295,0.9483211111213155,-0.1654424584398443,0,0.6798293689554217,0.7908857488209493,0.6726369212805148,0,1.015184630635344,0.6638663222859136,1.234874070941014,0,1.257470654686092,0.3792576103708738,0.5058043094805982,0,0.6299894652177358,927.5457875457876,855.8241758241759,931.1721611721612,924.7252747252747,629.7802197802198,-0.123596,-0.024780,0.996948,0.269165,-0.598145,-1.413116,416630.036630,127538754.578755,76266666.666667,78.644699,1,2,1,2,2,80.000000
2025-05-02 21:05:20.590,,,,,,,,,,,,,,,,,,,,,,,,,,,,,,,,,,,,,,,,,,/muse/elements/blink
2025-05-02 21:05:21.293,,,,,,,,,,,,,,,,,,,,,,,,,,,,,,,,,,,,,,,,,,/muse/elements/jaw_clench
2025-05-02 21:05:21.537,1.265114964293685,0.4963731352972441,0,1.066500447125295,0.9483211111213155,-0.1654424584398443,0,0.6798293689554217,0.7908857488209493,0.6726369212805148,0,1.015184630635344,0.6638663222859136,1.234874070941014,0,1.257470654686092,0.3792576103708738,0.5058043094805982,0,0.6299894652177358,823.5897435897436,821.5750915750916,522.1978021978022,711.1721611721612,597.1428571428571,-0.124329,-0.028320,0.998230,0.246735,-1.405640,-0.074768,419047.619048,127685421.245421,76314212.454212,78.116592,1,2,1,2,2,80.000000
2025-05-02 21:05:21.579,,,,,,,,,,,,,,,,,,,,,,,,,,,,,,,,,,,,,,,,,,/muse/elements/jaw_clench
2025-05-02 21:05:21.984,,,,,,,,,,,,,,,,,,,,,,,,,,,,,,,,,,,,,,,,,,/muse/elements/blink
2025-05-02 21:05:22.492,,,,,,,,,,,,,,,,,,,,,,,,,,,,,,,,,,,,,,,,,,/muse/elements/jaw_clench
2025-05-02 21:05:22.531,1.477829718079079,0.4963731352972441,0,1.066500447125295,0.7047223864020664,-0.1654424584398443,0,0.6798293689554217,0.8020918375046787,0.6726369212805148,0,1.015184630635344,0.7890687913224542,1.234874070941014,0,1.257470654686092,0.07021509887200668,0.5058043094805982,0,0.6299894652177358,869.1208791208792,853.4065934065934,805.0549450549451,838.0952380952381,520.5860805860806,-0.121643,-0.022705,1.000732,0.508423,-0.949554,-0.508423,413406.593407,127495238.095238,76299706.959707,77.716904,1,1,1,2,1,80.000000
2025-05-02 21:05:22.685,,,,,,,,,,,,,,,,,,,,,,,,,,,,,,,,,,,,,,,,,,/muse/elements/jaw_clench
2025-05-02 21:05:23.113,,,,,,,,,,,,,,,,,,,,,,,,,,,,,,,,,,,,,,,,,,/muse/elements/jaw_clench
2025-05-02 21:05:23.197,,,,,,,,,,,,,,,,,,,,,,,,,,,,,,,,,,,,,,,,,,/muse/elements/blink
2025-05-02 21:05:23.389,,,,,,,,,,,,,,,,,,,,,,,,,,,,,,,,,,,,,,,,,,/muse/elements/blink
2025-05-02 21:05:23.531,1.45479124786494,0.4963731352972441,0,1.066500447125295,0.7139519407910428,-0.1654424584398443,0,0.6798293689554217,0.8581977932876917,0.6726369212805148,0,1.015184630635344,0.8112996133389644,1.234874070941014,0,1.257470654686092,0.1476157368909045,0.5058043094805982,0,0.6299894652177358,871.1355311355312,837.2893772893773,916.6666666666667,919.0842490842491,680.1465201465202,-0.121216,-0.019104,0.998352,0.650482,-2.669220,-0.179443,415824.175824,127410622.710623,76301318.681319,77.716904,1,1,1,2,1,80.000000
2025-05-02 21:05:24.415,,,,,,,,,,,,,,,,,,,,,,,,,,,,,,,,,,,,,,,,,,/muse/elements/blink
2025-05-02 21:05:24.531,1.236937822262851,0.4963731352972441,0,1.066500447125295,0.6609390368307146,-0.1654424584398443,0,0.6798293689554217,0.6812291771094036,0.6726369212805148,0,1.015184630635344,0.8005890867381066,1.234874070941014,0,1.257470654686092,0.1748401828288177,0.5058043094805982,0,0.6299894652177358,838.4981684981685,805.4578754578755,448.4615384615385,762.7472527472528,754.2857142857143,-0.112305,-0.023926,0.998230,0.299072,-2.287903,-0.463562,418241.758242,127429963.369963,76253772.893773,77.482185,1,1,1,2,1,80.000000
2025-05-02 21:05:24.608,,,,,,,,,,,,,,,,,,,,,,,,,,,,,,,,,,,,,,,,,,/muse/elements/blink
2025-05-02 21:05:24.756,,,,,,,,,,,,,,,,,,,,,,,,,,,,,,,,,,,,,,,,,,/muse/elements/jaw_clench
2025-05-02 21:05:24.927,,,,,,,,,,,,,,,,,,,,,,,,,,,,,,,,,,,,,,,,,,/muse/elements/jaw_clench
2025-05-02 21:05:25.227,,,,,,,,,,,,,,,,,,,,,,,,,,,,,,,,,,,,,,,,,,/muse/elements/blink
2025-05-02 21:05:25.530,1.236937822262851,0.4963731352972441,0,1.066500447125295,0.6609390368307146,-0.1654424584398443,0,0.6798293689554217,0.6812291771094036,0.6726369212805148,0,1.015184630635344,0.8005890867381066,1.234874070941014,0,1.257470654686092,0.1748401828288177,0.5058043094805982,0,0.6299894652177358,886.0439560439561,843.7362637362637,846.5567765567765,893.6996336996338,529.047619047619,-0.122986,-0.023560,0.994141,0.605621,-1.861725,-0.381317,414212.454212,127446886.446886,76254578.754579,77.516098,1,1,1,2,1,80.000000
2025-05-02 21:05:25.653,,,,,,,,,,,,,,,,,,,,,,,,,,,,,,,,,,,,,,,,,,/muse/elements/jaw_clench
2025-05-02 21:05:25.825,,,,,,,,,,,,,,,,,,,,,,,,,,,,,,,,,,,,,,,,,,/muse/elements/blink
2025-05-02 21:05:25.825,,,,,,,,,,,,,,,,,,,,,,,,,,,,,,,,,,,,,,,,,,/muse/elements/jaw_clench
2025-05-02 21:05:26.250,,,,,,,,,,,,,,,,,,,,,,,,,,,,,,,,,,,,,,,,,,/muse/elements/blink
2025-05-02 21:05:26.535,1.236937822262851,0.4963731352972441,0,1.066500447125295,0.6609390368307146,-0.1654424584398443,0,0.6798293689554217,0.6812291771094036,0.6726369212805148,0,1.015184630635344,0.8005890867381066,1.234874070941014,0,1.257470654686092,0.1748401828288177,0.5058043094805982,0,0.6299894652177358,763.1501831501831,798.2051282051282,444.8351648351648,737.7655677655678,695.8608058608058,-0.118530,-0.028992,0.994812,0.209351,-1.009369,-0.022430,418241.758242,127083443.223443,76187692.307692,77.111443,1,2,1,2,2,80.000000
2025-05-02 21:05:26.955,,,,,,,,,,,,,,,,,,,,,,,,,,,,,,,,,,,,,,,,,,/muse/elements/jaw_clench
2025-05-02 21:05:27.169,,,,,,,,,,,,,,,,,,,,,,,,,,,,,,,,,,,,,,,,,,/muse/elements/blink
2025-05-02 21:05:27.535,1.236937822262851,0.062761507114836,0,1.066500447125295,0.6609390368307146,0.08910490887102081,0,0.6798293689554217,0.6812291771094036,0.5032435793196605,0,1.015184630635344,0.8005890867381066,0.9813501126907849,0,1.257470654686092,0.1748401828288177,0.291335623063616,0,0.6299894652177358,804.2490842490843,799.0109890109891,468.2051282051282,593.919413919414,397.6923076923077,-0.127197,-0.025330,0.999634,-0.044861,-1.181335,-0.014954,418241.758242,127150329.670330,76245714.285714,76.591766,1,2,1,2,2,80.000000
2025-05-02 21:05:28.079,,,,,,,,,,,,,,,,,,,,,,,,,,,,,,,,,,,,,,,,,,/muse/elements/blink
2025-05-02 21:05:28.401,,,,,,,,,,,,,,,,,,,,,,,,,,,,,,,,,,,,,,,,,,/muse/elements/blink
2025-05-02 21:05:28.530,0.5640860337492847,0.2941184708542657,0,1.066500447125295,0.5351242584514242,-0.01690899452623669,0,0.6798293689554217,0.6602407083532882,0.3974053250451972,0,1.015184630635344,0.5383487375972266,1.033739138794601,0,1.257470654686092,-0.06823845962877781,0.2094874601688808,0,0.6299894652177358,877.5824175824176,830.4395604395604,954.9450549450549,926.7399267399268,738.1684981684982,-0.115173,-0.040161,1.002319,1.151428,-2.317810,0.381317,415824.175824,127173699.633700,76287619.047619,76.132004,1,1,1,2,1,80.000000
2025-05-02 21:05:28.594,,,,,,,,,,,,,,,,,,,,,,,,,,,,,,,,,,,,,,,,,,/muse/elements/blink
2025-05-02 21:05:28.786,,,,,,,,,,,,,,,,,,,,,,,,,,,,,,,,,,,,,,,,,,/muse/elements/blink
2025-05-02 21:05:29.021,,,,,,,,,,,,,,,,,,,,,,,,,,,,,,,,,,,,,,,,,,/muse/elements/blink
2025-05-02 21:05:29.531,0.4580598714385147,0.6367480957133863,0,1.066500447125295,0.5576038845247867,0.6218289609394554,0,0.6798293689554217,0.6602407083532882,0.5989746783725227,0,1.015184630635344,0.6197072345698408,1.004846394360864,0,1.257470654686092,-0.08651185297714062,0.2768723145630739,0,0.6299894652177358,868.3150183150184,817.5457875457876,912.2344322344322,834.4688644688645,950.9157509157509,-0.107910,-0.036682,1.007324,0.411224,-0.104675,0.590668,418241.758242,127168864.468864,76260219.780220,75.177345,1,1,1,2,1,80.000000
2025-05-02 21:05:30.531,0.4580598714385147,0.5200279130395455,0,1.066500447125295,0.5576038845247867,0.60006595843094,0,0.6798293689554217,0.6602407083532882,0.6105606103420363,0,1.015184630635344,0.6197072345698408,0.9809327616234939,0,1.257470654686092,-0.08651185297714062,0.2815656106880626,0,0.6299894652177358,821.1721611721612,797.3992673992674,470.2197802197803,719.6336996336996,635.8241758241759,-0.106262,-0.024719,1.000793,0.687866,-1.629944,-0.463562,417435.897436,127035091.575092,76288424.908425,74.627953,1,2,1,2,2,80.000000
2025-05-02 21:05:30.937,,,,,,,,,,,,,,,,,,,,,,,,,,,,,,,,,,,,,,,,,,/muse/elements/blink
2025-05-02 21:05:31.531,0.4580598714385147,0.4302818074981231,0,1.066500447125295,0.5576038845247867,0.3475006651690536,0,0.6798293689554217,0.6602407083532882,0.7498031662034306,0,1.015184630635344,0.6197072345698408,1.030497260329881,0,1.257470654686092,-0.08651185297714062,0.4042503496150777,0,0.6299894652177358,856.6300366300367,839.7069597069598,919.8901098901099,826.007326007326,552.014652014652,-0.109131,-0.020325,1.003174,1.084137,-0.373840,0.082245,416630.036630,127018974.358974,76322271.062271,73.160683,1,2,1,2,2,80.000000
2025-05-02 21:05:32.257,,,,,,,,,,,,,,,,,,,,,,,,,,,,,,,,,,,,,,,,,,/muse/elements/blink
2025-05-02 21:05:32.449,,,,,,,,,,,,,,,,,,,,,,,,,,,,,,,,,,,,,,,,,,/muse/elements/blink
2025-05-02 21:05:32.531,0.4580598714385147,0.8125165289722183,0,1.066500447125295,0.5576038845247867,0.651624450514413,0,0.6798293689554217,0.6602407083532882,0.7453242131700956,0,1.015184630635344,0.6197072345698408,0.9164994828223938,0,1.257470654686092,-0.08651185297714062,0.4189798596546969,0,0.6299894652177358,852.1978021978023,820.7692307692308,857.4358974358975,933.5897435897436,699.8901098901099,-0.107361,-0.016541,0.999329,0.418701,-0.979462,0.777588,418241.758242,126980293.040293,76278754.578755,72.816490,1,2,1,2,2,80.000000
2025-05-02 21:05:33.531,0.4580598714385147,0.681158937126338,0,1.066500447125295,0.5576038845247867,0.6507290676412162,0,0.6798293689554217,0.6602407083532882,0.6262619013533824,0,1.015184630635344,0.6197072345698408,0.8959225080397939,0,1.257470654686092,-0.08651185297714062,0.5119461901882365,0,0.6299894652177358,749.8534798534798,809.8901098901099,392.051282051282,862.6739926739926,963.4065934065934,-0.100891,-0.014404,1.005188,1.091614,-0.814972,-0.328979,417435.897436,127098754.578755,76308571.428571,73.663338,1,2,1,2,2,80.000000
2025-05-02 21:05:33.983,,,,,,,,,,,,,,,,,,,,,,,,,,,,,,,,,,,,,,,,,,/muse/elements/blink
2025-05-02 21:05:34.531,0.4580598714385147,0.3329507621726897,0,1.066500447125295,0.5576038845247867,0.120576325288286,0,0.6798293689554217,0.6602407083532882,0.4737069637639758,0,1.015184630635344,0.6197072345698408,0.9167785645319142,0,1.257470654686092,-0.08651185297714062,0.4856167166359445,0,0.6299894652177358,911.8315018315019,848.5714285714286,1260.3663003663,1243.846153846154,1235.384615384615,-0.103943,-0.016541,0.999573,1.039276,-1.899109,0.142059,417435.897436,127177728.937729,76366593.406593,72.765846,1,2,1,2,2,80.000000
2025-05-02 21:05:35.304,,,,,,,,,,,,,,,,,,,,,,,,,,,,,,,,,,,,,,,,,,/muse/elements/blink
2025-05-02 21:05:35.540,0.4580598714385147,0.5575460790492571,0,1.066500447125295,0.5576038845247867,-0.04297687497505488,0,0.6798293689554217,0.6602407083532882,0.3710821856101223,0,1.015184630635344,0.6197072345698408,0.9379139412261909,0,1.257470654686092,-0.08651185297714062,0.3329729858882637,0,0.6299894652177358,844.1391941391942,816.7399267399268,910.6227106227107,1089.52380952381,992.8205128205128,-0.101013,-0.010986,1.000366,0.643005,-1.368256,-0.224304,418241.758242,126853772.893773,76254578.754579,72.181129,1,2,1,2,2,80.000000
2025-05-02 21:05:36.203,,,,,,,,,,,,,,,,,,,,,,,,,,,,,,,,,,,,,,,,,,/muse/elements/jaw_clench
2025-05-02 21:05:36.416,,,,,,,,,,,,,,,,,,,,,,,,,,,,,,,,,,,,,,,,,,/muse/elements/blink
2025-05-02 21:05:36.533,0.4580598714385147,0.3421558996351236,0,1.066500447125295,0.5576038845247867,0.6829311829657527,0,0.6798293689554217,0.6602407083532882,0.63223174357101,0,1.015184630635344,0.6197072345698408,0.8910400479030735,0,1.257470654686092,-0.08651185297714062,0.3383050589242135,0,0.6299894652177358,842.9304029304029,802.6373626373627,662.4175824175825,967.4358974358975,1066.556776556777,-0.094421,-0.012756,1.005127,0.179443,-0.747681,-0.328979,417435.897436,126706300.366300,76200586.080586,73.253166,1,2,1,2,4,80.000000
2025-05-02 21:05:37.037,,,,,,,,,,,,,,,,,,,,,,,,,,,,,,,,,,,,,,,,,,/muse/elements/jaw_clench
2025-05-02 21:05:37.208,,,,,,,,,,,,,,,,,,,,,,,,,,,,,,,,,,,,,,,,,,/muse/elements/blink
2025-05-02 21:05:37.401,,,,,,,,,,,,,,,,,,,,,,,,,,,,,,,,,,,,,,,,,,/muse/elements/blink
2025-05-02 21:05:37.530,0.4580598714385147,0.3421558996351236,0,1.066500447125295,0.5576038845247867,0.6829311829657527,0,0.6798293689554217,0.6602407083532882,0.63223174357101,0,1.015184630635344,0.6197072345698408,0.8910400479030735,0,1.257470654686092,-0.08651185297714062,0.3383050589242135,0,0.6299894652177358,868.7179487179487,819.96336996337,682.967032967033,870.7326007326008,550,-0.094421,-0.021667,1.002808,0.448608,-0.568237,-0.000000,417435.897436,126754652.014652,76301318.681319,71.288322,1,2,1,2,2,80.000000
2025-05-02 21:05:38.530,0.4580598714385147,0.9030587027534186,0,1.066500447125295,0.5576038845247867,0.6883777762692361,0,0.6798293689554217,0.6602407083532882,0.6927838654801789,0,1.015184630635344,0.6197072345698408,0.8622398152176988,0,1.257470654686092,-0.08651185297714062,0.252547882271261,0,0.6299894652177358,854.2124542124542,800.2197802197802,866.7032967032967,1003.699633699634,809.8901098901099,-0.096619,-0.020630,0.998962,0.545807,-1.278534,0.643005,418241.758242,126777216.117216,76423809.523810,68.167534,1,2,1,2,2,80.000000
2025-05-02 21:05:38.534,,,,,,,,,,,,,,,,,,,,,,,,,,,,,,,,,,,,,,,,,,/muse/elements/blink
2025-05-02 21:05:38.769,,,,,,,,,,,,,,,,,,,,,,,,,,,,,,,,,,,,,,,,,,/muse/elements/blink
2025-05-02 21:05:39.530,0.4580598714385147,0.5937045587651082,0,1.066500447125295,0.5576038845247867,0.4618087141172395,0,0.6798293689554217,0.6602407083532882,0.6283419029202482,0,1.015184630635344,0.6197072345698408,0.8236077724414081,0,1.257470654686092,-0.08651185297714062,0.3310494671414302,0,0.6299894652177358,840.1098901098901,808.2783882783883,739.7802197802198,786.5201465201466,699.0842490842491,-0.105347,-0.015076,1.009338,1.136475,-1.383209,0.747681,416630.036630,128030329.670330,77527032.967033,67.277222,1,2,1,2,2,80.000000
2025-05-02 21:05:39.750,,,,,,,,,,,,,,,,,,,,,,,,,,,,,,,,,,,,,,,,,,/muse/elements/blink
2025-05-02 21:05:39.836,,,,,,,,,,,,,,,,,,,,,,,,,,,,,,,,,,,,,,,,,,/muse/elements/jaw_clench
2025-05-02 21:05:39.987,,,,,,,,,,,,,,,,,,,,,,,,,,,,,,,,,,,,,,,,,,/muse/elements/blink
2025-05-02 21:05:40.530,0.4580598714385147,0.5937045587651082,0,1.066500447125295,0.5576038845247867,0.4618087141172395,0,0.6798293689554217,0.6602407083532882,0.6283419029202482,0,1.015184630635344,0.6197072345698408,0.8236077724414081,0,1.257470654686092,-0.08651185297714062,0.3310494671414302,0,0.6299894652177358,902.1611721611722,838.0952380952381,950.5128205128206,983.956043956044,646.3003663003664,-0.079956,-0.012695,0.997986,0.112152,-3.297272,-0.814972,417435.897436,128957069.597070,77689010.989011,68.796425,1,2,1,2,2,80.000000
2025-05-02 21:05:40.585,,,,,,,,,,,,,,,,,,,,,,,,,,,,,,,,,,,,,,,,,,/muse/elements/blink
2025-05-02 21:05:41.205,,,,,,,,,,,,,,,,,,,,,,,,,,,,,,,,,,,,,,,,,,/muse/elements/jaw_clench
2025-05-02 21:05:41.290,,,,,,,,,,,,,,,,,,,,,,,,,,,,,,,,,,,,,,,,,,/muse/elements/blink
2025-05-02 21:05:41.397,,,,,,,,,,,,,,,,,,,,,,,,,,,,,,,,,,,,,,,,,,/muse/elements/jaw_clench
2025-05-02 21:05:41.535,0.4580598714385147,0.5937045587651082,0,1.066500447125295,0.5576038845247867,0.4618087141172395,0,0.6798293689554217,0.6602407083532882,0.6283419029202482,0,1.015184630635344,0.6197072345698408,0.8236077724414081,0,1.257470654686092,-0.08651185297714062,0.3310494671414302,0,0.6299894652177358,757.9120879120879,796.1904761904763,483.5164835164835,706.3369963369963,800.2197802197802,-0.083740,-0.021729,1.000916,0.074768,-0.284119,-0.396271,419047.619048,128375238.095238,77608424.908425,69.289452,1,2,1,2,2,80.000000
2025-05-02 21:05:42.430,,,,,,,,,,,,,,,,,,,,,,,,,,,,,,,,,,,,,,,,,,/muse/elements/blink
2025-05-02 21:05:42.532,0.06655812739857944,0.4483847983700159,0,1.066500447125295,0.2668729374330164,0.4696808365784017,0,0.6798293689554217,0.53324750066529,0.5415369206868001,0,1.015184630635344,0.7623146195476517,0.7960246895559149,0,1.257470654686092,0.1944649238350286,0.2411267495132911,0,0.6299894652177358,850.5860805860806,801.8315018315019,711.5750915750916,773.6263736263736,631.3919413919414,-0.101013,-0.017944,0.995789,1.039276,0.328979,0.082245,416630.036630,128121391.941392,77439194.139194,69.403900,1,1,1,2,1,80.000000
2025-05-02 21:05:42.712,,,,,,,,,,,,,,,,,,,,,,,,,,,,,,,,,,,,,,,,,,/muse/elements/blink
2025-05-02 21:05:43.530,0.1207455127649622,0.6166948263235048,0,1.066500447125295,0.2183101279936663,0.4755490673917421,0,0.6798293689554217,0.4365547119680789,0.4831910463983225,0,1.015184630635344,0.753756747265614,0.8409439092985002,0,1.257470654686092,0.1803750313214234,0.1993341372158807,0,0.6299894652177358,871.5384615384615,844.9450549450549,1007.326007326007,905.3846153846154,583.040293040293,-0.100281,-0.011597,1.006958,0.919647,-0.994415,0.014954,417435.897436,128172161.172161,77450476.190476,71.076408,1,1,1,2,1,80.000000
2025-05-02 21:05:44.530,0.3696000181470501,0.1343108307871367,0,1.151948471058271,0.2358071192088564,0.2393724226789243,0,0.6168144462016831,0.4946060397453905,0.3870474172013812,0,0.7721899381308344,0.5529046961805332,0.8825103666094917,0,0.7107911624306118,0.275852395131516,0.1671017197232295,0,0.1157076084100014,807.8754578754579,815.1282051282052,809.4871794871796,871.941391941392,778.8644688644689,-0.097046,-0.020508,1.000244,0.373840,-1.345825,0.127106,419047.619048,128251135.531136,77559267.399267,70.850525,1,1,1,2,1,80.000000
2025-05-02 21:05:45.136,,,,,,,,,,,,,,,,,,,,,,,,,,,,,,,,,,,,,,,,,,/muse/elements/blink
2025-05-02 21:05:45.530,0.6720295897288945,-0.04574639383853055,0,1.371117371095612,0.2862179428249755,0.1827330186064002,0,0.6796856750708419,0.4926199118630309,0.3560159750169379,0,0.9278371399798317,0.5270404468731883,0.8845665015869086,0,0.780449481487911,0.2351044749156277,0.2095258922679429,0,0.1481124637291435,853.0036630036631,803.4432234432235,606.007326007326,823.1868131868132,796.5934065934066,-0.099792,-0.017029,0.995117,0.762634,-0.702820,-0.358887,416630.036630,128292234.432234,77495604.395604,66.795593,1,1,1,2,1,80.000000
2025-05-02 21:05:46.463,,,,,,,,,,,,,,,,,,,,,,,,,,,,,,,,,,,,,,,,,,/muse/elements/blink
2025-05-02 21:05:46.530,0.5264653376125669,0.09357053528493932,0,1.589743433394568,0.2336189219937876,-0.1864753029352104,0,0.6865337595287817,0.690231172954742,0.2480596411920488,0,0.9046263750505558,0.6674906532383733,0.8287839460283465,0,0.7233283396608925,0.1423501788018937,0.07736048232986112,0,0.1759310833605597,856.2271062271062,821.5750915750916,1000.879120879121,937.6190476190476,578.2051282051282,-0.104919,-0.015442,1.013062,0.807495,-0.628052,0.149536,419853.479853,128244688.644689,77405347.985348,64.243378,1,1,1,2,1,80.000000
2025-05-02 21:05:47.536,0.6250509962517589,0.3700317676738822,0,1.362445956857156,0.2208425497650336,-0.122697929421795,0,0.9208069276823625,0.6232818232355622,0.2571566891524567,0,1.014047086426029,0.5875019690049216,0.8391916709771615,0,0.7818364745457251,0.01236809030317267,0.05292399524531343,0,-0.0210818641086397,645.8974358974359,790.952380952381,502.8571428571429,709.9633699633699,556.8498168498169,-0.107727,-0.018738,1.006775,0.261688,-1.121521,0.500946,419047.619048,128052087.912088,77259487.179487,62.271507,1,1,1,2,1,80.000000
2025-05-02 21:05:47.914,,,,,,,,,,,,,,,,,,,,,,,,,,,,,,,,,,,,,,,,,,/muse/elements/blink
2025-05-02 21:05:48.537,0.7698528074864142,0.7772016872156067,0,1.464295032892539,0.02244937367479754,0.4759287184419689,0,1.111567426334371,0.3212761136860389,0.3259459361833745,0,1.198135793143196,0.5725966544227413,0.8642714084811745,0,0.8034329222759323,-0.02134338748047005,0.07393252721238591,0,0.07478477234258341,836.8864468864469,802.2344322344322,676.9230769230769,782.0879120879121,540.3296703296703,-0.106567,-0.020142,1.003113,0.740204,-1.951447,0.089722,415018.315018,127726520.146520,76975824.175824,61.170135,1,1,1,2,1,80.000000
2025-05-02 21:05:48.891,,,,,,,,,,,,,,,,,,,,,,,,,,,,,,,,,,,,,,,,,,/muse/elements/blink
2025-05-02 21:05:49.216,,,,,,,,,,,,,,,,,,,,,,,,,,,,,,,,,,,,,,,,,,/muse/elements/blink
2025-05-02 21:05:49.531,0.7698528074864142,0.9584312809171083,0,1.464295032892539,0.02244937367479754,0.7031158317493361,0,1.111567426334371,0.3212761136860389,0.5283888540596233,0,1.198135793143196,0.5725966544227413,0.8551959798526466,0,0.8034329222759323,-0.02134338748047005,0.2241873180897904,0,0.07478477234258341,867.5091575091575,828.8278388278388,1025.457875457875,908.6080586080586,566.1172161172161,-0.099121,-0.020020,1.002502,0.672913,-1.629944,-0.104675,419047.619048,127508937.728938,76875091.575092,61.217758,1,1,1,2,1,80.000000
2025-05-02 21:05:50.427,,,,,,,,,,,,,,,,,,,,,,,,,,,,,,,,,,,,,,,,,,/muse/elements/blink
2025-05-02 21:05:50.530,0.8944047858009346,0.5422598322664398,0,1.464295032892539,0.7530906790747062,0.3354587008576042,0,1.111567426334371,0.4544071895002417,0.5356118251768442,0,1.198135793143196,0.7264111085314944,0.7481521476841088,0,0.8034329222759323,-0.05837953410449393,0.2082309048620886,0,0.07478477234258341,709.5604395604396,833.2600732600733,619.7069597069598,795.7875457875458,741.3919413919414,-0.104431,-0.022339,0.999084,0.829926,-1.510315,0.261688,417435.897436,127374358.974359,76934725.274725,61.726173,1,1,1,2,1,80.000000
2025-05-02 21:05:50.707,,,,,,,,,,,,,,,,,,,,,,,,,,,,,,,,,,,,,,,,,,/muse/elements/blink
2025-05-02 21:05:51.530,0.9202189584385425,0.4542336079686795,0,1.464295032892539,0.7430811691866099,0.3716115298452335,0,1.111567426334371,0.4235027206348196,0.3934581472816948,0,1.198135793143196,0.7508610053834985,0.8042174860849934,0,0.8034329222759323,-0.05262460317806293,0.3500351270185995,0,0.07478477234258341,749.8534798534798,825.6043956043957,662.8205128205128,720.0366300366301,620.9157509157509,-0.104736,-0.013123,0.999939,0.366364,-1.286011,0.044861,415824.175824,127342930.402930,76800952.380952,62.504074,1,1,1,2,1,80.000000
2025-05-02 21:05:51.665,,,,,,,,,,,,,,,,,,,,,,,,,,,,,,,,,,,,,,,,,,/muse/elements/blink
2025-05-02 21:05:52.530,0.9240922893613596,0.6892074193502764,0,1.464295032892539,0.7099724616627255,0.6200946181759598,0,1.111567426334371,0.3766291045416479,0.3934581472816948,0,1.198135793143196,0.7763697052235193,0.9123585386966266,0,0.8034329222759323,-0.04301823012816835,0.4764685974156948,0,0.07478477234258341,843.7362637362637,826.007326007326,1047.619047619048,921.9047619047619,620.9157509157509,-0.095703,-0.015564,1.001648,0.949554,-1.405640,0.433655,419047.619048,127308278.388278,77049157.509158,63.569504,1,1,1,2,1,80.000000
2025-05-02 21:05:52.886,,,,,,,,,,,,,,,,,,,,,,,,,,,,,,,,,,,,,,,,,,/muse/elements/blink
2025-05-02 21:05:53.529,0.9240922893613596,0.6892074193502764,0,1.464295032892539,0.7099724616627255,0.6200946181759598,0,1.111567426334371,0.3766291045416479,0.3934581472816948,0,1.198135793143196,0.7763697052235193,0.9123585386966266,0,0.8034329222759323,-0.04301823012816835,0.4764685974156948,0,0.07478477234258341,765.5677655677656,802.6373626373627,627.3626373626374,838.901098901099,759.92673992674,-0.100098,-0.004578,1.004944,1.450500,-0.583191,0.844879,415824.175824,127406593.406593,77105567.765568,64.065659,1,2,1,2,2,80.000000
2025-05-02 21:05:54.473,,,,,,,,,,,,,,,,,,,,,,,,,,,,,,,,,,,,,,,,,,/muse/elements/blink
2025-05-02 21:05:54.530,0.9240922893613596,0.6135563451849618,0,1.464295032892539,0.7099724616627255,0.59351984568646,0,1.111567426334371,0.3766291045416479,0.174061526365218,0,1.198135793143196,0.7763697052235193,0.8172988980962782,0,0.8034329222759323,-0.04301823012816835,0.350742634377701,0,0.07478477234258341,874.7619047619048,802.6373626373627,817.5457875457876,836.4835164835165,684.5787545787546,-0.096985,-0.007629,1.003113,1.555176,-2.198181,0.328979,412600.732601,127368717.948718,77144249.084249,65.639297,1,2,1,2,2,80.000000
2025-05-02 21:05:55.530,0.9240922893613596,0.4805817470153193,0,1.464295032892539,0.7099724616627255,0.3631021974505567,0,1.111567426334371,0.3766291045416479,0.3265938377585066,0,1.198135793143196,0.7763697052235193,0.8483047526142622,0,0.8034329222759323,-0.04301823012816835,0.2430276409627961,0,0.07478477234258341,843.7362637362637,828.8278388278388,1008.937728937729,900.952380952381,678.9377289377289,-0.085999,-0.005737,1.004456,0.568237,-1.345825,0.142059,418241.758242,127202710.622711,77095091.575092,66.943184,1,2,1,2,2,80.000000
2025-05-02 21:05:55.599,,,,,,,,,,,,,,,,,,,,,,,,,,,,,,,,,,,,,,,,,,/muse/elements/blink
2025-05-02 21:05:56.531,0.9240922893613596,0.5108859996873922,0,1.464295032892539,0.7099724616627255,0.4467657229593313,0,1.111567426334371,0.3766291045416479,0.2119411317552895,0,1.198135793143196,0.7763697052235193,0.9260719126103949,0,0.8034329222759323,-0.04301823012816835,0.1721106073921611,0,0.07478477234258341,755.8974358974359,806.2637362637363,568.1318681318681,690.2197802197802,620.9157509157509,-0.095947,-0.016479,1.000671,0.014954,-2.175751,-0.097198,415824.175824,126820732.600733,76933113.553114,67.905190,1,2,1,2,2,80.000000
2025-05-02 21:05:56.798,,,,,,,,,,,,,,,,,,,,,,,,,,,,,,,,,,,,,,,,,,/muse/elements/blink
2025-05-02 21:05:57.536,1.229179736401516,0.3229400872407581,0,0.9952203591907999,0.2975672891019119,0.3754076176381419,0,0.5752706066702379,0.6782527652720107,0.5768017270505018,0,1.027861534944024,0.6963153623884167,0.8833166372931071,0,0.7074589621084597,0.02343597394176249,-0.02436720951892458,0,0.2526112719881488,841.3186813186813,806.2637362637363,786.1172161172161,826.007326007326,577.3992673992674,-0.094421,-0.018677,1.001038,-0.044861,-1.099091,-0.740204,411794.871795,126975457.875458,77338461.538462,69.910698,1,1,1,2,1,80.000000
2025-05-02 21:05:58.252,,,,,,,,,,,,,,,,,,,,,,,,,,,,,,,,,,,,,,,,,,/muse/elements/blink
2025-05-02 21:05:58.529,1.062821040033215,0.4540366030770823,0,1.038302278748302,0.1828477799997886,0.4255329064354088,0,0.4480642732961512,0.7468824359054133,0.7850031082658508,0,0.6536649858337495,0.7080132843396766,0.8671753540770477,0,0.6809895274934274,0.09222436297213282,0.21222931064932,0,0.2035626001780538,858.2417582417582,824.7985347985348,974.2857142857143,894.5054945054945,561.2820512820513,-0.096375,-0.022644,1.003113,0.665436,-0.927124,0.396271,418241.758242,127225274.725275,77381978.021978,71.061920,1,1,1,2,1,80.000000
2025-05-02 21:05:59.491,,,,,,,,,,,,,,,,,,,,,,,,,,,,,,,,,,,,,,,,,,/muse/elements/blink
2025-05-02 21:05:59.530,0.5397422286506712,0.8681252961915054,0,1.187191969934654,-0.07955259053123193,0.7688836650696899,0,0.5434042684473701,0.5814769613923345,0.7601836367472173,0,0.5357795417654203,0.7249897877255411,0.8972961639602377,0,0.699223878843461,0.1784867030312506,0.2349748962727912,0,0.2026954911853069,780.4761904761905,778.4615384615385,487.948717948718,844.1391941391942,945.6776556776557,-0.104797,-0.022949,0.993347,0.209351,0.523376,-0.388794,415018.315018,126912600.732601,77271575.091575,72.578918,1,1,1,2,1,80.000000
2025-05-02 21:06:00.087,,,,,,,,,,,,,,,,,,,,,,,,,,,,,,,,,,,,,,,,,,/muse/elements/blink
2025-05-02 21:06:00.530,0.2578905264576128,0.1030981039901401,0,0.69421109227596,0.001816865876212318,-0.04456460311523808,0,0.4193855470842666,0.5976938211703904,0.1147944324304247,0,0.7456494126376629,0.3035411298293211,0.8327004589187985,0,0.6427513882283266,0.1937926900773255,-0.02185308382644965,0,-0.01805864663171568,848.974358974359,806.6666666666667,815.5311355311355,836.4835164835165,601.1721611721612,-0.102173,-0.020020,0.999207,0.224304,-1.143951,0.007477,411794.871795,126644249.084249,77074945.054945,74.754402,1,1,1,2,1,80.000000
2025-05-02 21:06:00.558,,,,,,,,,,,,,,,,,,,,,,,,,,,,,,,,,,,,,,,,,,/muse/elements/blink
2025-05-02 21:06:00.987,,,,,,,,,,,,,,,,,,,,,,,,,,,,,,,,,,,,,,,,,,/muse/elements/blink
2025-05-02 21:06:01.530,0.2781453279400464,0.3465727328340649,0,0.7201185919629852,0.050756445818699,0.08800580529293302,0,0.5220941854059716,0.5976938211703904,0.09432709100047409,0,0.6761410316209533,0.312647442836079,0.7281599027203002,0,0.6668603242855624,0.2218895124551134,0.02207517256211295,0,-0.1167131876116045,853.8095238095239,816.3369963369963,936.007326007326,930.7692307692308,688.6080586080586,-0.093384,-0.022339,1.000488,0.650482,-1.054230,-0.089722,410989.010989,126651501.831502,77055604.395604,76.788132,1,1,1,2,1,80.000000
2025-05-02 21:06:02.204,,,,,,,,,,,,,,,,,,,,,,,,,,,,,,,,,,,,,,,,,,/muse/elements/blink
2025-05-02 21:06:02.533,0.2781453279400464,0.6466249625930852,0,0.7201185919629852,0.050756445818699,0.6826876375583237,0,0.5220941854059716,0.5976938211703904,0.4573293884446138,0,0.6761410316209533,0.312647442836079,0.7968269597585113,0,0.6668603242855624,0.2218895124551134,0.2089391517112249,0,-0.1167131876116045,806.6666666666667,755.4945054945055,261.9047619047619,746.6300366300367,1332.087912087912,-0.092224,-0.023804,0.998718,0.755157,-0.717773,-0.246735,413406.593407,126692600.732601,77041098.901099,76.994682,1,1,1,2,1,80.000000
2025-05-02 21:06:03.141,,,,,,,,,,,,,,,,,,,,,,,,,,,,,,,,,,,,,,,,,,/muse/elements/blink
2025-05-02 21:06:03.529,0.2781453279400464,0.6392895052124723,0,0.7201185919629852,0.050756445818699,0.6295261013303044,0,0.5220941854059716,0.5976938211703904,0.5374253253566316,0,0.6761410316209533,0.312647442836079,0.7598922351413616,0,0.6668603242855624,0.2218895124551134,0.2259367350516836,0,-0.1167131876116045,884.4322344322345,813.1135531135532,839.7069597069598,868.7179487179487,625.3479853479854,-0.099060,-0.024536,0.998230,0.321503,-1.525269,-0.583191,412600.732601,126841684.981685,77057216.117216,75.077484,1,2,1,2,2,80.000000
2025-05-02 21:06:04.529,0.2781453279400464,0.5077032903224902,0,0.7201185919629852,0.050756445818699,0.3915417598553159,0,0.5220941854059716,0.5976938211703904,0.4938682234329944,0,0.6761410316209533,0.312647442836079,0.6936361649328922,0,0.6668603242855624,0.2218895124551134,0.249762443440344,0,-0.1167131876116045,861.0622710622711,821.978021978022,960.5860805860806,925.5311355311355,764.3589743589744,-0.094238,-0.023071,0.996704,0.328979,-0.747681,0.157013,417435.897436,126897289.377289,77062857.142857,72.122551,1,2,1,2,2,80.000000
2025-05-02 21:06:04.547,,,,,,,,,,,,,,,,,,,,,,,,,,,,,,,,,,,,,,,,,,/muse/elements/blink
2025-05-02 21:06:05.530,1.155990711890656,0.755709167318806,0,1.44132742005529,0.699695452480906,0.8697311603172809,0,1.086198037932134,0.6901867249561507,0.2724859798556657,0,1.144200060443354,0.693036118096945,0.7635626133849307,0,0.8435391336603646,0.05360651076636239,0.2283931965894738,0,0.3292596515254892,777.6556776556777,784.5054945054945,531.4652014652015,816.3369963369963,705.5311355311355,-0.108948,-0.017090,1.001648,0.874786,-1.248627,0.762634,414212.454212,126821538.461538,77190989.010989,69.189133,1,1,1,2,1,80.000000
2025-05-02 21:06:06.530,0.4935612212999594,0.1213987025463161,0,1.131067926431794,0.3843499171545419,0.3550351763371756,0,0.6963262080197732,0.4993264513336083,0.2815552369736614,0,0.9443751726484303,0.519126165233736,0.7451918921135363,0,0.7371846648717371,0.2733297146048155,-0.07646295144409031,0,0.3282702952192708,861.8681318681319,800.2197802197802,794.5787545787546,869.1208791208792,749.8534798534798,-0.120178,-0.026245,1.005493,0.904694,-0.538330,1.009369,412600.732601,126744175.824176,77165201.465201,67.704414,1,1,1,2,1,80.000000
2025-05-02 21:06:07.529,0.3563052480841006,0.0629696010551634,0,0.8888519969920248,0.03373832274264139,0.1833569254261474,0,0.4791063341132514,0.6679827506591672,0.4975504349699895,0,0.7335579628292251,0.4888404864620752,0.762088560663199,0,0.6465895077694956,0.219296534802199,0.09886430474178115,0,0.2904943720273894,844.1391941391942,830.4395604395604,1022.234432234432,941.2454212454213,623.7362637362637,-0.103577,-0.015137,1.005188,0.725250,-0.515900,0.149536,415018.315018,126743369.963370,77166813.186813,67.684410,1,1,1,2,1,80.000000
2025-05-02 21:06:08.377,,,,,,,,,,,,,,,,,,,,,,,,,,,,,,,,,,,,,,,,,,/muse/elements/blink
2025-05-02 21:06:08.536,0.7443542693675395,0.2875867066275074,0,1.163623164934205,0.2386500170922003,0.3361838746583913,0,0.6012011439549658,0.9087477832580791,0.5173864009907267,0,0.8427012050790029,0.5391210684818944,0.7871975911621935,0,0.7168336724615353,0.1008620893938368,0.2963462377444215,0,0.2980795017734744,886.0439560439561,797.3992673992674,684.1758241758242,740.5860805860806,616.080586080586,-0.099609,-0.007507,1.003174,0.957031,-0.149536,-0.777588,411794.871795,126866666.666667,77186153.846154,68.633545,1,1,1,2,1,80.000000
2025-05-02 21:06:09.529,0.8582860899693115,0.3111445832509687,0,1.395583972743172,0.5482548947844542,0.4553293195956488,0,0.5643468299022445,0.7964927394820015,0.3455382353911998,0,0.7002878563037359,0.5027802357555669,0.7923480530677222,0,0.8206068231231419,0.007369665579783997,0.2871188393968455,0,0.3537759544989827,860.2564102564103,811.5018315018315,878.3882783882784,828.4249084249085,574.5787545787546,-0.108643,-0.017700,1.002014,1.697235,-0.919647,-1.532745,411794.871795,126860219.780220,77022564.102564,70.424988,1,1,1,2,1,80.000000
2025-05-02 21:06:10.530,0.8249898820982261,0.1960990458148565,0,1.161380866168316,0.4984863890720879,-0.1470572965011059,0,0.8230250468611494,0.4636530209576398,0.287723264304222,0,0.7800241927632474,0.4689147868091417,0.7346171245348669,0,0.6449994062869999,-0.1042261932520053,0.07005381904309983,0,0.1209457104986875,853.4065934065934,801.8315018315019,952.1245421245421,907.3992673992674,684.981684981685,-0.100647,-0.010986,1.000366,0.523376,-2.078552,1.487885,414212.454212,126910183.150183,77012087.912088,72.410629,1,1,1,2,1,80.000000
2025-05-02 21:06:11.533,0.7937678068700412,0.9585982208144718,0,1.183254955176261,0.4488153006130625,0.7661588021716519,0,0.9992493163998559,0.4583447906637508,0.7241215234079246,0,0.383847571150563,0.4898097760444108,0.7854957839857756,0,0.6278348722395373,-0.1065590230647689,0.01452360308868822,0,0.1076424841704452,797.8021978021978,792.1611721611722,476.6666666666667,730.1098901098901,835.2747252747253,-0.093079,-0.009399,1.000793,-1.241150,0.246735,-1.465454,411794.871795,126852161.172161,76995970.695971,74.833069,1,1,1,2,1,80.000000
2025-05-02 21:06:12.141,,,,,,,,,,,,,,,,,,,,,,,,,,,,,,,,,,,,,,,,,,/muse/elements/blink
2025-05-02 21:06:12.529,0.7937678068700412,0.6423487783774245,0,1.183254955176261,0.4488153006130625,0.525462000874764,0,0.9992493163998559,0.4583447906637508,0.513135516500542,0,0.383847571150563,0.4898097760444108,0.7461410524596257,0,0.6278348722395373,-0.1065590230647689,-0.00736790785329173,0,0.1076424841704452,861.4652014652015,816.3369963369963,883.6263736263736,825.6043956043957,557.6556776556777,-0.103210,-0.022644,1.002014,0.418701,-0.971985,-0.770111,410989.010989,126384761.904762,76841245.421245,79.094467,1,1,1,2,1,80.000000
2025-05-02 21:06:13.536,0.7937678068700412,-0.1089394989283888,0,1.183254955176261,0.4488153006130625,-0.09933176214371663,0,0.9992493163998559,0.4583447906637508,0.4145073196781272,0,0.383847571150563,0.4898097760444108,0.7127210221329825,0,0.6278348722395373,-0.1065590230647689,0.1295239176086579,0,0.1076424841704452,826.007326007326,813.919413919414,898.5347985347986,898.9377289377289,782.893772893773,-0.094666,-0.025146,1.003296,0.672913,-1.801910,-1.024323,415018.315018,126245347.985348,76875091.575092,84.936630,1,2,1,2,2,80.000000
2025-05-02 21:06:14.535,0.5088789124761396,0.2252894784551355,0,1.049072868200706,0.04968660893656037,-0.07361751832607197,0,0.4750189588838519,0.5100510657229901,0.4159433028392304,0,0.4873602701185015,0.5185380094168328,0.6910954755615536,0,0.7760071554426157,0.03830717429720109,0.1751361117367985,0,0.1307052921890106,821.978021978022,796.996336996337,643.4798534798535,751.8681318681319,718.4249084249085,-0.102905,-0.016235,1.003418,0.433655,-1.600037,0.433655,411794.871795,125894798.534799,76770329.670330,90.727249,1,1,1,2,1,80.000000
2025-05-02 21:06:15.529,0.5934476336055072,0.3599069115293653,0,0.9816641264862218,0.3810908913333119,-0.05736394622530126,0,0.6062526698790793,0.4461651326939586,0.2172598521450438,0,0.6504396778650514,0.401477071587175,0.7397244701851425,0,0.6325752948527247,0.09382555091715016,0.1659345512663756,0,0.2672667446200921,860.2564102564103,815.1282051282052,935.2014652014652,851.3919413919414,557.2527472527472,-0.103638,-0.017151,1.004578,0.882263,-2.998199,-0.695343,410989.010989,125934285.714286,76793699.633700,91.548874,1,1,1,2,1,80.000000
2025-05-02 21:06:16.530,0.4753020237182368,0.01848678219495354,0,0.658646530830981,0.5340498494563163,-0.2457694004352144,0,0.6017013086316029,0.567455144455147,0.3129032895342762,0,0.7317433905806556,0.4011511756123934,0.7463509457803654,0,0.5929040683297063,0.0823079232132137,0.01141411479409535,0,0.27565401319478,818.7545787545788,814.3223443223443,897.7289377289378,901.7582417582418,738.1684981684982,-0.097168,-0.026733,0.999634,0.859833,-2.781372,-1.502838,414212.454212,126197802.197802,76850915.750916,85.108376,1,1,1,2,1,80.000000
2025-05-02 21:06:17.529,0.4341390031570587,0.4366156994460333,0,0.7664564456114187,0.5711646665383679,0.3348623467938742,0,0.1655992586570279,0.4309755549917791,0.3378640310010286,0,0.5688089485054922,0.4776810873578228,0.6633307480793084,0,0.5340491535295767,0.09739783050360191,-0.07340209668060717,0,0.2714863279809011,817.1428571428571,801.4285714285714,649.5238095238095,737.3626373626374,624.5421245421246,-0.095215,-0.025879,1.001404,1.196289,0.112152,0.942078,411794.871795,126437948.717949,76874285.714286,79.647743,1,1,1,2,1,80.000000
2025-05-02 21:06:18.529,0.3544813231808097,0.4613938169431579,0,0.7157477543979198,-0.01082382306997071,0.3992014166880654,0,0.005511873333571192,0.1343976391292052,0.3419560971437794,0,0.4823402092510218,0.4892902813253898,0.5989915185698613,0,0.7096479999687572,0.0365106616907766,0.005238439289551425,0,0.3752669854813089,865.0915750915751,830.0366300366301,977.1062271062272,875.9706959706959,581.025641025641,-0.095886,-0.017822,0.997803,0.471039,-0.261688,-0.224304,411794.871795,126600732.600733,76950036.630037,76.592590,1,1,1,2,1,80.000000
2025-05-02 21:06:19.529,0.5318967525373565,0.2816173200555609,0,0.8543939142784587,0.2755462942243677,0.1795731819397018,0,0.5722237931600662,0.536779857207189,0.5445813633238443,0,0.5222300947978554,0.3411843024139617,0.68665129257904,0,0.6559903529172478,0.07633412124462012,0.04203084134704481,0,0.2758533020515951,808.6813186813187,815.934065934066,891.2820512820513,888.0586080586081,679.3406593406594,-0.095093,-0.018982,1.001526,0.343933,-2.572021,-0.059814,413406.593407,126672454.212454,76975018.315018,74.757874,1,1,1,2,1,80.000000
2025-05-02 21:06:20.530,0.8288988408876021,0.4703226225073409,0,1.044202210739672,0.3422102741610846,0.227392467174788,0,0.8783444265189048,0.7743115234613576,0.5219668455034475,0,0.7472991790309201,0.3375964076530101,0.7398956866460962,0,0.6228737861781302,0.1700980142075011,-0.217029167744405,0,0.1748870634011558,839.7069597069598,820.3663003663004,659.1941391941392,764.7619047619048,686.5934065934066,-0.101379,-0.025146,1.003723,0.149536,-0.560760,0.044861,412600.732601,126351721.611722,76837216.117216,74.583672,1,1,1,2,1,80.000000
2025-05-02 21:06:21.533,0.6007303093527394,0.6814895644435293,0,0.8304181944050059,0.2607265025676324,0.6049121831221126,0,0.541081629976625,0.7104909659141777,0.622915128599519,0,0.5125284696524833,0.3453339593284245,0.8187430604816237,0,0.6070551091976033,0.110788169817503,-0.2155488768086895,0,0.1156555084153415,862.6739926739926,836.4835164835165,1022.637362637363,892.0879120879121,588.2783882783883,-0.097961,-0.023865,1.002747,1.076660,-0.553284,-0.134583,411794.871795,126133333.333333,76729230.769231,75.830658,1,1,1,2,1,80.000000
2025-05-02 21:06:22.536,-0.04842490293399483,0.532029357068509,0,1.170433537649503,-0.0678230757983042,0.4296231103354881,0,0.3788558714320255,0.5714641728895745,0.4938398597538303,0,0.4734091277559023,0.2490592779453496,0.6672495000386979,0,0.5644078621696086,-0.1815562137690092,0.1023026338061192,0,0.07249768217938964,803.4432234432235,808.2783882783883,853.8095238095239,897.3260073260074,672.893772893773,-0.111816,-0.029114,1.001404,0.388794,-0.942078,-0.485992,414212.454212,125624835.164835,76580146.520147,75.720444,1,1,1,2,1,80.000000
2025-05-02 21:06:23.539,0.2438606804499028,0.2978243847801152,0,1.102072302889332,0.07149022150645673,0.01824378480608276,0,0.5605544898465337,0.8075973931591174,0.2881271211919396,0,0.7432798786252538,0.4373210303325095,0.6422019566975792,0,0.5450790481959203,-0.1743794964338916,0.1322376077863961,0,0.1437130729738128,832.8571428571429,806.6666666666667,676.1172161172161,743.0036630036631,610.0366300366301,-0.107300,-0.030884,0.996216,1.143951,-1.607513,0.336456,411794.871795,125708644.688645,76676849.816850,74.652817,1,1,1,2,1,80.000000
2025-05-02 21:06:24.529,0.3618730322573312,0.05976336643148731,0,0.9709693653976366,0.1252114184936941,-0.01526746565225847,0,0.6094081393824659,0.7552568829033559,0.3054543276563536,0,0.8923785760360988,0.5041303844982162,0.6894966431621652,0,0.6633328571561471,-0.03142876301231701,0.06612758083514746,0,0.1549560635890955,740.5860805860806,835.2747252747253,614.4688644688645,665.2380952380953,531.0622710622711,-0.095642,-0.023376,1.005371,0.224304,-1.502838,-0.643005,412600.732601,126215531.135531,76813040.293040,74.556000,1,1,1,2,1,80.000000
2025-05-02 21:06:25.529,0.5636660055813305,0.6371300827163143,0,0.8871870055453588,0.4544386513978399,0.5240222042434745,0,0.608054660861265,0.2743611960875744,0.4535505872867791,0,0.7738462052848408,0.3886674629888375,0.6634166261218908,0,0.6676898988799514,0.01561155707440861,0.1748249959669831,0,0.1401924235815764,804.2490842490843,807.8754578754579,848.1684981684982,883.6263736263736,728.901098901099,-0.099731,-0.015259,1.001343,0.209351,-2.564545,-0.044861,411794.871795,126346886.446886,76916190.476190,74.157700,1,1,1,2,1,80.000000
2025-05-02 21:06:26.529,0.4715303165038802,0.4558357350526686,0,1.103935691330103,0.543594936302251,0.2554056491864802,0,0.4688188567763621,0.5772377547815882,0.4485204019299698,0,0.8032530494119844,0.7040255039959981,0.6944079614398513,0,0.5211955974106396,-0.0001790484028455145,0.159675589410444,0,0.1038412763786721,828.021978021978,803.040293040293,748.6446886446887,763.956043956044,653.1501831501831,-0.095581,-0.020691,1.006104,-0.067291,-0.201874,-0.635529,412600.732601,125832747.252747,76765494.505495,73.941879,1,1,1,2,1,80.000000
2025-05-02 21:06:27.529,0.3295041824538345,0.1704012444948312,0,0.8708306552654446,0.2450388273542431,-0.3745865112933007,0,0.4749171704055453,0.733631646758794,0.02900999414281123,0,0.8837395999074583,0.5488238132010621,0.7044203572646011,0,0.6429960195752102,-0.1367036794085517,-0.01275048918901784,0,-0.04006602416321983,873.956043956044,828.8278388278388,1037.948717948718,897.3260073260074,583.040293040293,-0.097717,-0.028198,1.001221,0.747681,-0.747681,0.530853,414212.454212,125424175.824176,76600293.040293,75.765526,1,1,1,2,1,80.000000
2025-05-02 21:06:27.896,,,,,,,,,,,,,,,,,,,,,,,,,,,,,,,,,,,,,,,,,,/muse/elements/blink
2025-05-02 21:06:28.529,-0.01591284524868935,0.7066836797208524,0,0.7832051108990011,0.0934993225962789,0.4731535176727711,0,0.359286825017284,0.672401139799193,0.5179248073195786,0,0.7063533894130554,0.5178459908393274,0.5851135035666671,0,0.6650174821761096,-0.3125130890439085,0.122708516396767,0,0.1008454256266748,806.6666666666667,813.5164835164835,740.989010989011,886.8498168498169,907.8021978021978,-0.094604,-0.031128,1.000122,-0.261688,-1.398163,-0.672913,412600.732601,125326666.666667,76640586.080586,76.874603,1,1,1,2,1,80.000000
2025-05-02 21:06:29.529,0.2217700531649291,0.6538796121198641,0,0.9911729056696672,0.2358762390247765,0.4901529985606304,0,0.2539869242715144,0.4504950021520845,0.5269912908244835,0,0.7884286072024391,0.5794904914163221,0.4718735907482998,0,0.8018798295258028,0.1797167494871466,-0.0130640766921147,0,0.02894600523379828,853.4065934065934,789.3406593406594,552.8205128205128,811.9047619047619,886.8498168498169,-0.103455,-0.026245,1.004639,-0.082245,-0.904694,-0.448608,410989.010989,125581318.681319,76784029.304029,75.816628,1,1,1,2,1,80.000000
2025-05-02 21:06:30.325,,,,,,,,,,,,,,,,,,,,,,,,,,,,,,,,,,,,,,,,,,/muse/elements/blink
2025-05-02 21:06:30.529,0.5914238358891654,0.4786046697584729,0,1.008912678209255,0.3603656627146332,0.2924173855663925,0,0.2654685471601909,0.5952933941590267,0.2699153453670117,0,0.7884286072024391,0.5402602765018205,0.5900463687982302,0,0.7824004193844101,0.1504512946682988,-0.1749690062512902,0,0.06194490102495241,842.9304029304029,832.8571428571429,1033.113553113553,870.7326007326008,605.2014652014652,-0.099182,-0.027954,1.002380,-0.710297,-1.106567,-1.024323,414212.454212,125615164.835165,76801758.241758,73.980087,1,1,1,2,1,80.000000
2025-05-02 21:06:30.752,,,,,,,,,,,,,,,,,,,,,,,,,,,,,,,,,,,,,,,,,,/muse/elements/blink
2025-05-02 21:06:31.532,0.8608481418315144,1.147120822571305,0,1.086258886737782,0.4983003951489824,0.9816574539534388,0,0.3521441554757316,0.5755636786725754,0.5141394237658051,0,0.6322622614006184,0.4738464476877556,0.5535692187920161,0,0.8117427610927743,0.102486437210748,-0.09983935412143859,0,0.05100564318396906,797.3992673992674,799.4139194139194,780.8791208791209,908.6080586080586,732.9304029304029,-0.095032,-0.018433,1.000244,0.628052,-3.723450,0.785065,416630.036630,125590183.150183,76813846.153846,73.468971,1,1,1,2,1,80.000000
2025-05-02 21:06:32.535,0.8608481418315144,1.257014640667021,0,1.086258886737782,0.4983003951489824,1.107999872128574,0,0.3521441554757316,0.5755636786725754,0.5450563479282832,0,0.6322622614006184,0.4738464476877556,0.6312943804839963,0,0.8117427610927743,0.102486437210748,0.01600565028113112,0,0.05100564318396906,861.8681318681319,811.9047619047619,740.5860805860806,813.919413919414,726.4835164835165,-0.048279,-0.018127,1.003906,0.934601,-2.542114,1.951447,413406.593407,125771501.831502,76838827.838828,73.074829,1,1,1,2,1,80.000000
2025-05-02 21:06:33.529,0.6003257271370499,0.24979593368078,0,0.6891084504153784,0.1940164234060404,-0.06762489715494291,0,0.7671834983144682,0.6525262398293681,0.1813586933341813,0,0.7184138255905207,0.4874217089386039,0.6425025789329613,0,0.6536177343581117,0.1231345474336363,0.07453661526427208,0,0.3294963645752182,876.7765567765568,832.0512820512821,1034.322344322344,906.5934065934066,613.6630036630037,-0.059326,-0.017090,1.002075,0.762634,-2.063599,-1.016846,415018.315018,125847252.747253,76907326.007326,73.517113,1,1,1,2,1,80.000000
2025-05-02 21:06:34.529,0.7154439948774213,0.1298401499230106,0,0.7530252714123881,0.1202538106620449,-0.02975200106207687,0,0.6747268224577297,0.6790818612088311,0.3091172393823406,0,0.7536590518125218,0.3918781802372447,0.6402183406183567,0,0.5120484027565415,0.03375950312036444,0.1563333989343519,0,0.3545352300065078,800.6227106227107,835.2747252747253,743.4065934065934,887.6556776556777,809.0842490842491,-0.049805,-0.016968,1.006226,-0.515900,-1.241150,0.007477,413406.593407,125469304.029304,76447985.347985,74.898674,1,1,1,2,1,80.000000
2025-05-02 21:06:35.525,,,,,,,,,,,,,,,,,,,,,,,,,,,,,,,,,,,,,,,,,,/muse/elements/blink
2025-05-02 21:06:35.536,0.767213014525699,0.07762580672384997,0,0.6455832096337325,0.04570844761667936,-0.2227334518959352,0,0.4558045440782036,0.5551894257446648,0.2551376697982866,0,0.5970093319480219,0.3973882650655975,0.6576079742953146,0,0.340313391841621,0.08653238429423075,0.1745403124534613,0,0.5474023070208844,842.5274725274726,815.934065934066,707.948717948718,775.6410256410256,523.4065934065934,-0.044250,-0.000488,1.010681,1.786957,-3.573914,1.674805,415018.315018,125105860.805861,76293260.073260,77.047379,1,1,1,2,1,80.000000
2025-05-02 21:06:36.528,1.70487444320101,0.07762580672384997,0,0.5991930318964528,1.667538826945014,-0.2227334518959352,0,0.4517680328734909,1.371171464264644,0.2551376697982866,0,0.54367496323597,0.7187704032191564,0.6576079742953146,0,0.3483924373844197,0.009324198512339376,0.1745403124534613,0,0.6129601144666813,746.6300366300367,837.6923076923077,994.8351648351648,779.6703296703297,599.5604395604396,-0.054138,-0.016846,0.996277,0.351410,-1.368256,-0.545807,417435.897436,124990622.710623,75888717.948718,78.582283,1,1,1,2,1,80.000000
2025-05-02 21:06:36.740,,,,,,,,,,,,,,,,,,,,,,,,,,,,,,,,,,,,,,,,,,/muse/elements/blink
2025-05-02 21:06:37.528,1.70487444320101,0.07762580672384997,0,0.5991930318964528,1.667538826945014,-0.2227334518959352,0,0.4517680328734909,1.371171464264644,0.2551376697982866,0,0.54367496323597,0.7187704032191564,0.6576079742953146,0,0.3483924373844197,0.009324198512339376,0.1745403124534613,0,0.6129601144666813,790.5494505494506,787.3260073260074,653.956043956044,850.989010989011,700.2930402930403,-0.051086,-0.014038,1.012817,0.560760,-1.039276,-0.553284,419853.479853,124999487.179487,76526959.706960,80.956146,1,1,1,2,1,80.000000
2025-05-02 21:06:38.060,,,,,,,,,,,,,,,,,,,,,,,,,,,,,,,,,,,,,,,,,,/muse/elements/blink
2025-05-02 21:06:38.529,1.70487444320101,0.2557018145972575,0,0.7118922419631426,1.667538826945014,-0.3475436473555442,0,0.4385009328475444,1.371171464264644,0.3863621096297545,0,0.3186534605509039,0.7187704032191564,0.8052417984584083,0,0.5289981307068954,0.009324198512339376,-0.006007964381966533,0,0.1364201279684816,856.2271062271062,809.0842490842491,856.2271062271062,828.021978021978,589.0842490842491,-0.047119,-0.013855,1.006165,0.142059,-1.031799,-0.635529,414212.454212,125227545.787546,76630109.890110,81.335243,1,1,1,2,1,80.000000
2025-05-02 21:06:39.528,1.176856427870233,0.43171689193907,0,0.8932793356787179,0.6077464607394105,-0.2286422187826101,0,0.3946522115762582,0.4643780887195487,0.394413150528762,0,0.5043049500177654,0.4170227124520544,0.6588859840566241,0,0.636531611965616,-0.1015522806037621,0.004915410528750856,0,0.2007362764899168,851.7948717948718,812.3076923076924,974.2857142857143,913.040293040293,788.1318681318681,-0.046936,-0.009155,1.003601,-0.142059,-2.011261,0.777588,418241.758242,125474139.194139,76527765.567766,80.507095,1,1,1,2,1,80.000000
2025-05-02 21:06:40.529,1.016662734839523,0.3656315773665357,0,0.8611152127799813,0.3872776882366806,-0.2649251171568519,0,0.5729619866895542,0.3360126397990291,-0.01431299323856968,0,0.4747393410364331,0.4162560432558519,0.5841311274519253,0,0.6205718395895385,0.07865732159846821,-0.03075467759145515,0,0.3913201285674582,777.2527472527473,802.6373626373627,701.0989010989011,832.0512820512821,753.8827838827839,-0.039795,-0.017029,1.007263,0.485992,-2.086029,-1.158905,414212.454212,125490256.410256,76556776.556777,79.202202,1,1,1,2,1,80.000000
2025-05-02 21:06:40.768,,,,,,,,,,,,,,,,,,,,,,,,,,,,,,,,,,,,,,,,,,/muse/elements/blink
2025-05-02 21:06:41.529,0.9286078558603897,0.4103583403493536,0,0.8255687677696028,0.3416981501297272,0.1726259704184499,0,0.6432173436721202,0.6766547540400997,0.4180189501645499,0,0.6014562364005971,0.3075740108695506,0.695725184622742,0,0.5861606751229784,0.1470071005738657,-0.09924115701621872,0,-0.03422279021560393,815.1282051282052,822.7838827838829,863.4798534798535,788.9377289377289,606.4102564102565,-0.069336,-0.033325,1.013062,0.852356,0.635529,1.786957,418241.758242,125142124.542125,76340000.000000,76.981789,1,1,1,2,1,80.000000
2025-05-02 21:06:41.814,,,,,,,,,,,,,,,,,,,,,,,,,,,,,,,,,,,,,,,,,,/muse/elements/blink
2025-05-02 21:06:42.004,,,,,,,,,,,,,,,,,,,,,,,,,,,,,,,,,,,,,,,,,,/muse/elements/blink
2025-05-02 21:06:42.534,1.562370896196809,0.5756737900245374,0,0.8255687677696028,1.351231269495133,0.3792297946494048,0,0.6432173436721202,1.121041731219323,0.4180189501645499,0,0.6014562364005971,0.4758246302935631,0.7170046166018155,0,0.5861606751229784,0.06746445245872972,-0.204464270535559,0,-0.03422279021560393,833.6630036630037,825.6043956043957,1039.96336996337,906.1904761904763,699.8901098901099,-0.063843,-0.016113,1.009766,0.665436,-0.396271,-0.904694,419047.619048,133740659.340659,78410256.410256,74.974312,1,1,1,2,1,80.000000
2025-05-02 21:06:43.373,,,,,,,,,,,,,,,,,,,,,,,,,,,,,,,,,,,,,,,,,,/muse/elements/blink
2025-05-02 21:06:43.533,1.562370896196809,0.6057446659818945,0,0.8255687677696028,1.351231269495133,0.4289556881003149,0,0.6432173436721202,1.121041731219323,0.4180189501645499,0,0.6014562364005971,0.4758246302935631,0.6935137745616157,0,0.5861606751229784,0.06746445245872972,-0.2202984682961381,0,-0.03422279021560393,772.8205128205128,805.8608058608058,662.014652014652,828.021978021978,745.8241758241759,-0.043091,-0.016052,1.007751,0.994415,-1.547699,0.142059,420659.340659,133598827.838828,78371575.091575,74.585854,1,1,1,2,1,80.000000
2025-05-02 21:06:44.538,0.5927449299865041,0.8021273572996226,0,0.4447095549796604,-0.02683600710963273,0.3975405833135443,0,0.3324718648326574,0.2861199601895073,0.4060421984930782,0,0.8651885294546393,0.6189598941665063,0.6373759310460714,0,0.7112071452620636,-0.03597301156543886,-0.02948525658491229,0,0.09407558334952301,864.2857142857143,823.1868131868132,771.2087912087912,834.0659340659341,790.1465201465202,-0.039978,-0.016541,1.006287,1.256104,-1.420593,0.097198,416630.036630,133370769.230769,78230549.450549,74.585854,1,1,1,2,1,80.000000
2025-05-02 21:06:45.529,0.4347140938238314,0.8668290300750805,0,0.6266431856573534,0.3265634170256713,0.3878312913414656,0,0.6139639909847612,0.4841438728134811,0.5794178657234599,0,0.7773722177716066,0.5494375224926109,0.6726580846570022,0,0.4328278364017583,-0.02963738361955481,0.004831855797991476,0,0.2710284199600106,838.4981684981685,813.919413919414,1010.952380952381,902.1611721611722,804.2490842490843,-0.028259,-0.004883,1.009766,0.829926,-1.562653,0.149536,419047.619048,132970256.410256,77994432.234432,74.585854,1,1,1,2,1,80.000000
2025-05-02 21:06:46.064,,,,,,,,,,,,,,,,,,,,,,,,,,,,,,,,,,,,,,,,,,/muse/elements/blink
2025-05-02 21:06:46.529,0.3591563014499574,0.6625076663114576,0,0.6955632532042572,0.2517877593217226,-0.02903414422823588,0,0.7884724250067537,0.494616165410897,0.3077449909752115,0,0.951329336792195,0.5303948133241634,0.5346962636405141,0,0.5691694426010717,0.0637075518349255,-0.09587134898137911,0,0.3503712185855126,766.3736263736264,795.7875457875458,506.0805860805861,831.2454212454213,862.6739926739926,-0.035889,-0.006042,1.005554,0.560760,-1.988831,-0.029907,414212.454212,132855018.315018,77959780.219780,74.894745,1,1,1,2,1,80.000000
2025-05-02 21:06:47.193,,,,,,,,,,,,,,,,,,,,,,,,,,,,,,,,,,,,,,,,,,/muse/elements/blink
2025-05-02 21:06:47.529,0.237182840454453,0.2672792030686398,0,0.7356563015993646,0.4818527623056621,0.005744125508575849,0,0.7122051715926113,0.3462340802189661,0.4078888619626639,0,0.8067361758715872,0.5030532280841921,0.6417324082028208,0,0.7454722539493476,0.03200014412859824,0.005167739466214114,0,0.2171093190921568,859.047619047619,813.5164835164835,886.8498168498169,848.1684981684982,697.4725274725275,-0.032349,-0.017883,1.006836,0.209351,-1.054230,0.254211,416630.036630,132714798.534799,77751062.271062,73.439026,1,1,1,2,1,80.000000
2025-05-02 21:06:48.501,,,,,,,,,,,,,,,,,,,,,,,,,,,,,,,,,,,,,,,,,,/muse/elements/blink
2025-05-02 21:06:48.528,0.7363490806328221,0.5365798719875097,0,1.155344565521639,0.5247791078466332,0.05820755023069811,0,0.6474729209048661,0.7792873072456707,0.5573996411808981,0,0.9851447208001017,0.5230413545921847,0.6362784796526935,0,0.7462531807924061,0.08390890534656978,0.09759074718417779,0,0.2053829956887557,847.7655677655678,838.4981684981685,1019.010989010989,904.981684981685,672.893772893773,-0.023926,-0.007690,1.003113,0.343933,-1.211243,-0.650482,419047.619048,132697875.457875,77718827.838828,72.649521,1,1,1,2,1,80.000000
2025-05-02 21:06:49.529,0.8467686540688552,0.6017568120309561,0,1.132803797790616,0.4433098553898334,0.1748545085094754,0,0.6613215027655752,0.7600498296075232,0.4365942158781262,0,0.9872201088202215,0.4894421965183191,0.6318990351885315,0,0.7110549469789156,0.1183610798148717,0.01294564268878339,0,0.2025945305697668,760.3296703296703,806.2637362637363,506.4835164835165,780.0732600732601,792.967032967033,-0.028809,-0.011597,1.012451,0.822449,-1.226196,0.358887,420659.340659,132731721.611722,77759120.879121,71.664368,1,1,1,2,1,80.000000
2025-05-02 21:06:49.722,,,,,,,,,,,,,,,,,,,,,,,,,,,,,,,,,,,,,,,,,,/muse/elements/blink
2025-05-02 21:06:50.529,0.8569895897630077,0.7146927781144343,0,0.7185733837890879,0.4371185892181559,0.2611382951138295,0,0.6452430625317043,0.3543502959919592,0.2400471886846211,0,0.5263727803962661,0.3805487338980823,0.6503503829549324,0,0.6574978359046981,0.04760997187682293,-0.06427359799667204,0,0.2089014122963098,773.2234432234433,792.1611721611722,418.2417582417582,694.6520146520147,628.5714285714286,-0.031250,-0.005737,1.007202,0.186920,-1.166382,-0.650482,415824.175824,132629377.289377,77730915.750916,70.599495,1,1,1,2,1,80.000000
2025-05-02 21:06:51.132,,,,,,,,,,,,,,,,,,,,,,,,,,,,,,,,,,,,,,,,,,/muse/elements/blink
2025-05-02 21:06:51.529,0.1654753042305239,0.06953186849519703,0,0.2878453590050545,0.0357861389657704,-0.6909029292670105,0,0.3852534385273699,0.5227627371131626,0.05177754574170305,0,0.8102572304595633,0.4030276033920053,0.5551130350770458,0,0.6637249286406378,0.1276139828896987,-0.2560408379784989,0,0.03791978282312663,758.7179487179487,834.8717948717949,928.3516483516484,818.3516483516484,766.7765567765568,-0.031372,-0.000732,1.013367,0.007477,-3.671112,-1.577606,421465.201465,132199047.619048,77117655.677656,69.798180,1,1,1,2,1,80.000000
2025-05-02 21:06:52.353,,,,,,,,,,,,,,,,,,,,,,,,,,,,,,,,,,,,,,,,,,/muse/elements/blink
2025-05-02 21:06:52.532,0.2881406080314768,0.3150787684756582,0,0.2438195996134094,-0.01441047918901166,0.3503490799745526,0,0.4243184157029641,0.5193088722866849,0.4243312343603683,0,0.8102572304595633,0.2314816692278158,0.677784621789453,0,0.611617695106766,0.005579481936725023,-0.01735817086463661,0,0.005865578541992965,770.4029304029305,794.1758241758242,531.0622710622711,793.3699633699634,730.5128205128206,-0.022095,-0.021240,1.007263,-0.321503,-1.128998,-0.680389,423882.783883,131849304.029304,77750256.410256,68.272194,1,1,1,2,1,80.000000
2025-05-02 21:06:53.486,,,,,,,,,,,,,,,,,,,,,,,,,,,,,,,,,,,,,,,,,,/muse/elements/blink
2025-05-02 21:06:53.528,0.7849969447038064,0.46456583232488,0,1.181029924367331,0.1032480646537113,0.4491426808170235,0,0.3994203121693367,0.6067397336721682,0.2938519499321571,0,0.596271442232424,0.3369450425373032,0.6037405400970227,0,0.613212874086131,-0.09552879797766221,0.1629180834002547,0,0.2483963610368681,872.3443223443223,902.967032967033,976.3003663003664,858.6446886446887,586.6666666666666,-0.024841,-0.015808,1.005066,0.814972,-1.248627,0.127106,419047.619048,131423003.663004,77506886.446886,68.455132,1,1,1,2,1,80.000000
2025-05-02 21:06:53.720,,,,,,,,,,,,,,,,,,,,,,,,,,,,,,,,,,,,,,,,,,/muse/elements/blink
2025-05-02 21:06:54.529,1.499446540851896,0.3268600840071907,0,1.084014679190917,1.50918947336574,0.1212319602711458,0,0.4640140909629026,1.190045971791301,0.2011935201249993,0,0.5231236211097863,0.6054932840314706,0.59074121826743,0,0.710346417163993,0.007903594576681395,0.07132143702573825,0,0.1968785401255313,814.3223443223443,835.6776556776557,958.1684981684982,882.014652014652,813.1135531135532,-0.011047,-0.012146,1.006653,0.067291,-2.003784,-1.121521,422271.062271,131353699.633700,77042710.622711,68.887840,1,1,1,2,1,80.000000
2025-05-02 21:06:54.919,,,,,,,,,,,,,,,,,,,,,,,,,,,,,,,,,,,,,,,,,,/muse/elements/blink
2025-05-02 21:06:55.112,,,,,,,,,,,,,,,,,,,,,,,,,,,,,,,,,,,,,,,,,,/muse/elements/blink
2025-05-02 21:06:55.524,,,,,,,,,,,,,,,,,,,,,,,,,,,,,,,,,,,,,,,,,,/muse/elements/blink
2025-05-02 21:06:55.536,1.58571025250336,0.3268600840071907,0,1.084014679190917,1.603568191099038,0.1212319602711458,0,0.4640140909629026,1.190045971791301,0.2011935201249993,0,0.5231236211097863,0.651716402633856,0.59074121826743,0,0.710346417163993,0.0363021815231583,0.07132143702573825,0,0.1968785401255313,799.4139194139194,782.893772893773,652.3443223443223,739.3772893772893,613.6630036630037,-0.013916,-0.005798,1.008606,0.643005,-0.994415,-0.463562,422271.062271,131624468.864469,77625347.985348,68.887840,1,1,1,2,1,80.000000
2025-05-02 21:06:56.139,,,,,,,,,,,,,,,,,,,,,,,,,,,,,,,,,,,,,,,,,,/muse/elements/blink
2025-05-02 21:06:56.529,1.58571025250336,0.3268600840071907,0,1.084014679190917,1.603568191099038,0.1212319602711458,0,0.4640140909629026,1.190045971791301,0.2011935201249993,0,0.5231236211097863,0.651716402633856,0.59074121826743,0,0.710346417163993,0.0363021815231583,0.07132143702573825,0,0.1968785401255313,757.1062271062272,778.4615384615385,520.989010989011,704.7252747252747,517.7655677655678,-0.012451,-0.006104,1.010010,1.196289,-1.981354,0.254211,419047.619048,131388351.648352,77604395.604396,68.887840,1,2,1,2,2,80.000000
2025-05-02 21:06:57.528,1.58571025250336,0.4557134766620265,0,0.9768160584084463,1.603568191099038,0.3303764343863111,0,0.6822415198489125,1.190045971791301,0.404442825873822,0,0.5204189541575852,0.651716402633856,0.5443793583446258,0,0.6461363130111561,0.0363021815231583,0.1443881431270337,0,0.157285453090204,809.4871794871796,781.6849816849817,1000.07326007326,901.3553113553114,726.0805860805862,-0.009644,-0.010010,1.011841,1.046753,-1.106567,0.852356,421465.201465,131090989.010989,77546373.626374,69.571678,1,1,1,2,1,80.000000
2025-05-02 21:06:57.545,,,,,,,,,,,,,,,,,,,,,,,,,,,,,,,,,,,,,,,,,,/muse/elements/blink
2025-05-02 21:06:58.532,1.00328873289037,0.7016367973464471,0,1.362253719914132,0.5307449053437754,0.5477873606717165,0,1.265545978526293,0.3726671088651972,0.6407950507038611,0,1.503943475316315,0.4769515522034338,0.6566806678349834,0,0.6513196764812067,-0.2420186188818844,-0.07328149327131313,0,0.1398700380047949,819.1575091575091,767.1794871794872,615.6776556776557,750.2564102564103,621.7216117216118,-0.001770,-0.007202,1.009521,0.343933,-1.839294,0.269165,421465.201465,131038608.058608,77493186.813187,72.352951,1,1,1,2,1,80.000000
2025-05-02 21:06:59.056,,,,,,,,,,,,,,,,,,,,,,,,,,,,,,,,,,,,,,,,,,/muse/elements/blink
2025-05-02 21:06:59.376,,,,,,,,,,,,,,,,,,,,,,,,,,,,,,,,,,,,,,,,,,/muse/elements/blink
2025-05-02 21:06:59.536,1.00328873289037,0.8777183254039169,0,1.697805695103575,0.5307449053437754,0.6892428212873788,0,1.60760599791832,0.3726671088651972,0.6407950507038611,0,1.502981618851699,0.4769515522034338,0.6759090953799688,0,0.7500807800397478,-0.2420186188818844,-0.1395369571837987,0,0.2109313190560968,853.4065934065934,784.5054945054945,1008.534798534799,880.8058608058608,595.1282051282052,-0.011841,-0.007996,1.004700,0.725250,-1.981354,0.089722,420659.340659,131210256.410256,77941245.421245,72.484413,1,1,1,2,1,80.000000
2025-05-02 21:07:00.081,,,,,,,,,,,,,,,,,,,,,,,,,,,,,,,,,,,,,,,,,,/muse/elements/blink
2025-05-02 21:07:00.529,1.00328873289037,0.299988711416794,0,1.778813149990324,0.5307449053437754,-0.0209673497852057,0,1.636703388774115,0.3726671088651972,0.1423109965207791,0,1.498542428379055,0.4769515522034338,0.6341008037493796,0,0.7989040164937058,-0.2420186188818844,-0.1082782573112966,0,0.2121637722741525,667.6556776556777,783.2967032967033,936.8131868131868,929.5604395604396,737.7655677655678,0.004517,-0.002869,1.005432,-0.822449,-0.807495,0.261688,421465.201465,131464102.564103,78096776.556777,73.133926,1,1,1,2,1,80.000000
2025-05-02 21:07:01.298,,,,,,,,,,,,,,,,,,,,,,,,,,,,,,,,,,,,,,,,,,/muse/elements/blink
2025-05-02 21:07:01.528,1.00328873289037,0.7429959874182632,0,1.47731447072183,0.5307449053437754,0.4311046402877172,0,0.7304425133420175,0.3726671088651972,0.1056094643880611,0,0.7865120366085975,0.4769515522034338,0.4193520014261736,0,0.6484604080542554,-0.2420186188818844,0.02533287560165857,0,0.04150622589956401,763.956043956044,772.8205128205128,479.0842490842491,732.1245421245421,642.6739926739926,-0.007385,-0.007141,1.003479,0.867310,-2.302856,0.859833,417435.897436,131402051.282051,77850989.010989,73.509453,1,1,1,2,1,80.000000
2025-05-02 21:07:01.728,,,,,,,,,,,,,,,,,,,,,,,,,,,,,,,,,,,,,,,,,,/muse/elements/blink
2025-05-02 21:07:02.528,1.00328873289037,0.8632262156151345,0,1.516331533535172,0.5307449053437754,0.6733806659406704,0,0.7983317677853237,0.3726671088651972,0.3114596472342406,0,0.7590670434061053,0.4769515522034338,0.4458932701106035,0,0.648686204352619,-0.2420186188818844,0.02284072944348072,0,0.06800680024783341,712.3809523809524,804.6520146520147,941.6483516483516,938.021978021978,575.7875457875458,-0.016296,-0.010681,1.007629,2.287903,-4.029999,-1.151428,419047.619048,131132893.772894,77903369.963370,71.193169,1,1,1,2,1,80.000000
2025-05-02 21:07:02.717,,,,,,,,,,,,,,,,,,,,,,,,,,,,,,,,,,,,,,,,,,/muse/elements/blink
2025-05-02 21:07:03.528,1.00328873289037,0.6481553906773534,0,1.516331533535172,0.5307449053437754,0.4730970945395814,0,0.7983317677853237,0.3726671088651972,-0.05047322364427377,0,0.7590670434061053,0.4769515522034338,0.7058946950884478,0,0.648686204352619,-0.2420186188818844,-0.08625878635726805,0,0.06800680024783341,801.4285714285714,825.6043956043957,929.96336996337,902.1611721611722,778.8644688644689,-0.000610,-0.008606,1.007202,0.059814,-1.704712,1.517792,417435.897436,130555897.435897,76261025.641026,70.095100,1,1,1,2,1,80.000000
2025-05-02 21:07:03.828,,,,,,,,,,,,,,,,,,,,,,,,,,,,,,,,,,,,,,,,,,/muse/elements/blink
2025-05-02 21:07:04.149,,,,,,,,,,,,,,,,,,,,,,,,,,,,,,,,,,,,,,,,,,/muse/elements/blink
2025-05-02 21:07:04.448,,,,,,,,,,,,,,,,,,,,,,,,,,,,,,,,,,,,,,,,,,/muse/elements/blink
2025-05-02 21:07:04.528,1.00328873289037,0.6060749306369342,0,1.516331533535172,0.5307449053437754,-0.02799015557723739,0,0.7983317677853237,0.3726671088651972,0.01433823468137516,0,0.7590670434061053,0.4769515522034338,0.6526134813109776,0,0.648686204352619,-0.2420186188818844,0.282264648235016,0,0.06800680024783341,908.2051282051282,786.5201465201466,539.92673992674,763.956043956044,663.2234432234433,-0.013428,-0.008301,1.014709,1.330872,-0.306549,0.471039,416630.036630,130311721.611722,76367399.267399,70.834496,1,2,1,2,2,80.000000
2025-05-02 21:07:05.287,,,,,,,,,,,,,,,,,,,,,,,,,,,,,,,,,,,,,,,,,,/muse/elements/blink
2025-05-02 21:07:05.541,1.00328873289037,0.5327409678083072,0,1.516331533535172,0.5307449053437754,-0.1781858343394752,0,0.7983317677853237,0.3726671088651972,-0.02494452808344665,0,0.7590670434061053,0.4769515522034338,0.6382661638017282,0,0.648686204352619,-0.2420186188818844,0.3241052110971561,0,0.06800680024783341,886.8498168498169,810.6959706959707,1028.278388278388,899.7435897435897,715.2014652014652,-0.024902,-0.015808,1.005798,0.231781,-1.525269,0.583191,420659.340659,130410036.630037,76753406.593407,71.803879,1,2,1,2,2,80.000000
2025-05-02 21:07:06.528,1.00328873289037,0.4062460021061757,0,1.185503322968694,0.5307449053437754,-0.09380082625173901,0,0.6869995361304155,0.3726671088651972,0.527022992353982,0,0.6723806324290291,0.4769515522034338,0.5469695101665473,0,0.4516582224433865,-0.2420186188818844,-0.1601128067313268,0,0.03247884093881465,846.1538461538462,793.7728937728938,894.908424908425,898.5347985347986,706.7399267399268,-0.017822,-0.015015,1.005554,0.740204,-1.652374,0.239258,420659.340659,130365714.285714,76825128.205128,71.268959,1,1,1,2,1,80.000000
2025-05-02 21:07:06.595,,,,,,,,,,,,,,,,,,,,,,,,,,,,,,,,,,,,,,,,,,/muse/elements/blink
2025-05-02 21:07:07.528,1.436946760502062,0.5294869529470306,0,1.227278404875931,1.356355715670028,0.09483670821643234,0,1.103258179632373,1.125757678828226,0.4510365650777217,0,0.9350812333216486,0.4496394413652678,0.5308850662052305,0,0.6029579069507092,0.08560331943689532,-0.1728517783246173,0,0.1898015828283243,747.8388278388279,777.2527472527473,470.2197802197803,740.1831501831502,751.4652014652015,-0.021912,-0.018738,1.003906,0.478516,-0.874786,-0.448608,417435.897436,130260146.520147,76822710.622711,72.911682,1,1,1,2,1,80.000000
2025-05-02 21:07:07.728,,,,,,,,,,,,,,,,,,,,,,,,,,,,,,,,,,,,,,,,,,/muse/elements/blink
2025-05-02 21:07:08.528,1.009061159717225,0.2710252299297632,0,1.056843101423154,0.6403693045605641,-0.1285350465946158,0,0.7602619553459998,0.7717708024571872,0.4012195424092133,0,0.7902922893036709,0.2894493311744287,0.5567204469675134,0,0.6626857535099512,0.09246808337448403,-0.1829275932692616,0,0.1971841260984666,866.7032967032967,817.5457875457876,1046.410256410256,875.9706959706959,612.8571428571429,-0.033203,-0.013428,1.006226,0.971985,-2.893524,-1.016846,422271.062271,130169890.109890,76779194.139194,72.758057,1,1,1,2,1,80.000000
2025-05-02 21:07:09.137,,,,,,,,,,,,,,,,,,,,,,,,,,,,,,,,,,,,,,,,,,/muse/elements/blink
2025-05-02 21:07:09.416,,,,,,,,,,,,,,,,,,,,,,,,,,,,,,,,,,,,,,,,,,/muse/elements/blink
2025-05-02 21:07:09.528,0.7568588866012643,0.2581158931782283,0,1.081620397346117,0.1940351406576105,0.0633163950761511,0,0.5576704901291805,0.5088711885694006,0.2963678026127186,0,0.5338761389159561,0.269088246620266,0.548524681946677,0,0.4329612701301824,0.01124736817372753,0.1101764193113861,0,0.1765748417685336,838.0952380952381,807.0695970695971,902.967032967033,896.5201465201466,696.6666666666667,-0.024414,-0.011108,1.008972,1.166382,-1.495361,1.772003,422271.062271,130321391.941392,76838827.838828,72.281746,1,1,1,2,1,80.000000
2025-05-02 21:07:10.538,0.5978947504686294,0.9202661726611223,0,1.06362498376194,0.2485427573512747,0.7005293477078762,0,0.576032402155636,0.4706335382624946,0.4199044135284238,0,0.5234113598079798,0.2807802030360402,0.5176366910559926,0,0.4229978030775471,-0.01376932237027097,-0.02099772437214288,0,0.1878794456299772,847.7655677655678,786.9230769230769,669.6703296703297,789.3406593406594,752.2710622710623,-0.022156,-0.009155,1.004150,0.104675,-1.749573,-0.523376,419853.479853,130507545.787546,76867032.967033,71.131889,1,1,1,2,1,80.000000
2025-05-02 21:07:10.634,,,,,,,,,,,,,,,,,,,,,,,,,,,,,,,,,,,,,,,,,,/muse/elements/blink
2025-05-02 21:07:11.528,1.192567798095526,0.429774147906984,0,1.404058378652739,0.8166974344386883,0.412718832893725,0,0.7523989949289678,0.8857258174170022,0.4454505024377531,0,0.9957157466209769,0.2278535753382497,0.6170496166828801,0,0.5930276973586972,0.08673872576919811,-0.05597547484296302,0,0.1432716371538724,860.6593406593407,813.919413919414,1039.56043956044,886.8498168498169,563.6996336996338,-0.033203,-0.023071,1.006775,0.822449,-2.631836,0.209351,421465.201465,130435824.175824,76901684.981685,69.972389,1,1,1,2,1,80.000000
2025-05-02 21:07:11.576,,,,,,,,,,,,,,,,,,,,,,,,,,,,,,,,,,,,,,,,,,/muse/elements/blink
2025-05-02 21:07:11.768,,,,,,,,,,,,,,,,,,,,,,,,,,,,,,,,,,,,,,,,,,/muse/elements/blink
2025-05-02 21:07:12.528,1.343731935458467,0.4757065028178184,0,1.399493343463845,0.9626544786701661,0.3771406246934972,0,0.7414933314109893,0.8857258174170022,0.3736190031922461,0,0.9900365262595046,0.1998432444233236,0.6489422072695191,0,0.6257481112303512,0.0988629661632435,0.006845960865649075,0,0.1448361223643378,789.3406593406594,865.0915750915751,826.8131868131868,856.2271062271062,836.0805860805862,-0.018799,-0.020325,1.013306,0.545807,-2.332764,-0.889740,423882.783883,132301391.941392,77257069.597070,69.293114,1,1,1,2,1,80.000000
2025-05-02 21:07:12.689,,,,,,,,,,,,,,,,,,,,,,,,,,,,,,,,,,,,,,,,,,/muse/elements/blink
2025-05-02 21:07:13.528,1.343731935458467,0.3827481221061503,0,1.399493343463845,0.9626544786701661,-0.215099277474596,0,0.7414933314109893,0.8857258174170022,0.2409521879812026,0,0.9900365262595046,0.1998432444233236,0.6507467300255528,0,0.6257481112303512,0.0988629661632435,-0.01068360422957101,0,0.1448361223643378,809.8901098901099,784.5054945054945,676.1172161172161,877.985347985348,751.4652014652015,-0.010498,-0.015198,1.008728,-0.127106,-0.568237,-0.643005,421465.201465,131622857.142857,76875897.435897,69.271683,1,1,1,2,1,80.000000
2025-05-02 21:07:14.436,,,,,,,,,,,,,,,,,,,,,,,,,,,,,,,,,,,,,,,,,,/muse/elements/blink
2025-05-02 21:07:14.531,1.343731935458467,0.3827481221061503,0,1.399493343463845,0.9626544786701661,-0.215099277474596,0,0.7414933314109893,0.8857258174170022,0.2409521879812026,0,0.9900365262595046,0.1998432444233236,0.6507467300255528,0,0.6257481112303512,0.0988629661632435,-0.01068360422957101,0,0.1448361223643378,850.1831501831502,1038.351648351648,1045.604395604396,892.0879120879121,601.5750915750916,-0.014954,-0.001282,1.002197,1.914062,-1.241150,2.071075,421465.201465,129429304.029304,79814871.794872,69.271683,1,2,1,2,2,80.000000
2025-05-02 21:07:15.527,1.343731935458467,0.3827481221061503,0,1.399493343463845,0.9626544786701661,-0.215099277474596,0,0.7414933314109893,0.8857258174170022,0.2409521879812026,0,0.9900365262595046,0.1998432444233236,0.6507467300255528,0,0.6257481112303512,0.0988629661632435,-0.01068360422957101,0,0.1448361223643378,781.6849816849817,821.978021978022,845.7509157509157,852.1978021978023,788.5347985347986,-0.013306,-0.019348,1.004150,1.510315,-1.360779,-1.981354,423076.923077,129381758.241758,79973626.373626,69.271683,1,2,1,2,2,80.000000
2025-05-02 21:07:15.653,,,,,,,,,,,,,,,,,,,,,,,,,,,,,,,,,,,,,,,,,,/muse/elements/blink
2025-05-02 21:07:16.528,1.178425261374024,0.3827481221061503,0,1.468259642386484,0.8151802882065063,-0.215099277474596,0,0.4007737177490064,0.544123542780952,0.2409521879812026,0,0.6108481952698422,0.4125440913520584,0.6507467300255528,0,0.6215979007754603,0.1513382076234617,-0.01068360422957101,0,0.1098177117252322,758.3150183150184,756.7032967032967,495.2014652014652,735.7509157509157,656.7765567765568,-0.023193,-0.023010,1.007141,0.074768,-1.839294,0.942078,422271.062271,129376923.076923,80126739.926740,69.378967,1,1,1,2,1,80.000000
2025-05-02 21:07:16.948,,,,,,,,,,,,,,,,,,,,,,,,,,,,,,,,,,,,,,,,,,/muse/elements/blink
2025-05-02 21:07:17.529,1.230432335725112,0.3827481221061503,0,1.53672315601327,0.5505963934167143,-0.215099277474596,0,0.5050814488498171,0.4595617526650769,0.2409521879812026,0,0.479822808243914,0.3866823207084167,0.6507467300255528,0,0.4623893898183392,0.08073039482663326,-0.01068360422957101,0,0.04355927520736616,859.047619047619,776.4468864468864,1107.252747252747,897.7289377289378,641.0622710622711,-0.019531,-0.010681,1.006531,0.590668,0.112152,0.231781,424688.644689,129131135.531136,79956703.296703,74.528732,1,1,1,2,1,80.000000
2025-05-02 21:07:17.843,,,,,,,,,,,,,,,,,,,,,,,,,,,,,,,,,,,,,,,,,,/muse/elements/blink
2025-05-02 21:07:18.080,,,,,,,,,,,,,,,,,,,,,,,,,,,,,,,,,,,,,,,,,,/muse/elements/blink
2025-05-02 21:07:18.531,1.041448862922272,0.3827481221061503,0,1.53672315601327,0.4359154305393121,-0.215099277474596,0,0.5050814488498171,0.3544547061274749,0.2409521879812026,0,0.479822808243914,0.3933969699051216,0.6507467300255528,0,0.4623893898183392,0.09693211928253696,-0.01068360422957101,0,0.04355927520736616,783.6996336996338,714.3956043956044,848.5714285714286,858.6446886446887,745.8241758241759,-0.011536,-0.024963,1.007568,0.702820,-2.743988,2.295380,425494.505495,129202857.142857,80063076.923077,76.936981,1,1,1,2,1,80.000000
2025-05-02 21:07:19.482,,,,,,,,,,,,,,,,,,,,,,,,,,,,,,,,,,,,,,,,,,/muse/elements/blink
2025-05-02 21:07:19.533,1.041448862922272,0.3827481221061503,0,1.53672315601327,0.4359154305393121,-0.215099277474596,0,0.5050814488498171,0.3544547061274749,0.2409521879812026,0,0.479822808243914,0.3933969699051216,0.6507467300255528,0,0.4623893898183392,0.09693211928253696,-0.01068360422957101,0,0.04355927520736616,844.5421245421246,724.0659340659341,800.6227106227107,788.5347985347986,640.2564102564103,-0.018738,-0.018066,1.009521,1.360779,-0.239258,0.194397,423076.923077,129156117.216117,80030842.490842,76.050247,1,2,1,2,2,80.000000
2025-05-02 21:07:20.535,0.9711543331743112,0.2729595705018869,0,1.436109593737022,1.011149371104343,0.09376838937297262,0,1.196363422043902,0.6410585113176633,0.170334384457946,0,1.059712208634224,0.4233196279351424,0.958145579767293,0,0.7601964649394869,0.1455530614864885,0.2211510702768712,0,0.1605039108723187,881.6117216117217,765.1648351648352,1096.776556776557,923.1135531135532,626.5567765567765,-0.020874,-0.007935,1.008301,0.889740,0.650482,-0.119629,425494.505495,129094065.934066,80122710.622711,74.722794,1,1,1,2,1,80.000000
2025-05-02 21:07:20.696,,,,,,,,,,,,,,,,,,,,,,,,,,,,,,,,,,,,,,,,,,/muse/elements/blink
2025-05-02 21:07:20.889,,,,,,,,,,,,,,,,,,,,,,,,,,,,,,,,,,,,,,,,,,/muse/elements/blink
2025-05-02 21:07:21.528,1.269464454891405,0.3004191354886063,0,1.30296770277381,0.9953231081433073,0.03265528915631166,0,0.5523004534489924,0.8878249672006234,0.2141926957996199,0,0.5839339896329087,0.4869077730734169,0.9093025661561609,0,0.6491361585846928,0.2312261159699926,0.199062729789721,0,0.15866826453569,801.4285714285714,732.5274725274726,841.7216117216118,862.2710622710623,765.9706959706959,-0.021240,-0.007019,1.003357,1.256104,-4.179535,0.403748,423882.783883,128800732.600733,79930109.890110,75.367874,1,1,1,2,1,80.000000
2025-05-02 21:07:22.011,,,,,,,,,,,,,,,,,,,,,,,,,,,,,,,,,,,,,,,,,,/muse/elements/blink
2025-05-02 21:07:22.528,1.468080769424214,0.286641126867591,0,1.30296770277381,0.9722284067924635,0.04228818647288731,0,0.5523004534489924,0.8055610727492974,0.2141926957996199,0,0.5839339896329087,0.5572119904980908,0.854704942859822,0,0.6491361585846928,0.2967219180983153,0.1831805190247489,0,0.15866826453569,653.5531135531136,784.5054945054945,699.8901098901099,726.4835164835165,601.5750915750916,-0.131226,-0.011963,1.033508,0.650482,13.630219,5.854340,422271.062271,129008644.688645,80129157.509158,74.662613,1,1,1,2,1,80.000000
2025-05-02 21:07:22.640,,,,,,,,,,,,,,,,,,,,,,,,,,,,,,,,,,,,,,,,,,/muse/elements/blink
2025-05-02 21:07:23.323,,,,,,,,,,,,,,,,,,,,,,,,,,,,,,,,,,,,,,,,,,/muse/elements/blink
2025-05-02 21:07:23.528,1.468080769424214,0.286641126867591,0,1.30296770277381,0.9722284067924635,0.04228818647288731,0,0.5523004534489924,0.8055610727492974,0.2141926957996199,0,0.5839339896329087,0.5572119904980908,0.854704942859822,0,0.6491361585846928,0.2967219180983153,0.1831805190247489,0,0.15866826453569,854.6153846153846,806.6666666666667,1063.736263736264,948.0952380952381,585.0549450549451,0.046570,-0.029480,0.997192,1.188812,-3.102875,2.078552,421465.201465,128674212.454212,76811428.571429,74.924782,1,1,1,2,1,80.000000
2025-05-02 21:07:24.528,1.468080769424214,0.286641126867591,0,1.30296770277381,0.9722284067924635,0.04228818647288731,0,0.5523004534489924,0.8055610727492974,0.2141926957996199,0,0.5839339896329087,0.5572119904980908,0.854704942859822,0,0.6491361585846928,0.2967219180983153,0.1831805190247489,0,0.15866826453569,770.4029304029305,806.2637362637363,764.7619047619048,890.8791208791209,899.3406593406594,0.003418,-0.033264,1.014221,-1.966400,-9.031982,7.170258,420659.340659,128335750.915751,75974945.054945,76.132774,1,2,1,2,2,80.000000
2025-05-02 21:07:24.556,,,,,,,,,,,,,,,,,,,,,,,,,,,,,,,,,,,,,,,,,,/muse/elements/blink
2025-05-02 21:07:24.792,,,,,,,,,,,,,,,,,,,,,,,,,,,,,,,,,,,,,,,,,,/muse/elements/blink
2025-05-02 21:07:24.985,,,,,,,,,,,,,,,,,,,,,,,,,,,,,,,,,,,,,,,,,,/muse/elements/blink
2025-05-02 21:07:25.529,1.468080769424214,0.286641126867591,0,1.30296770277381,0.9722284067924635,0.04228818647288731,0,0.5523004534489924,0.8055610727492974,0.2141926957996199,0,0.5839339896329087,0.5572119904980908,0.854704942859822,0,0.6491361585846928,0.2967219180983153,0.1831805190247489,0,0.15866826453569,479.8901098901099,630.989010989011,129.3406593406594,602.7838827838827,750.6593406593407,0.013794,-0.040039,0.999573,-0.979462,-7.005768,-0.418701,415018.315018,127748278.388278,74466373.626374,76.132774,1,2,1,2,2,80.000000
2025-05-02 21:07:25.582,,,,,,,,,,,,,,,,,,,,,,,,,,,,,,,,,,,,,,,,,,/muse/elements/blink
2025-05-02 21:07:25.989,,,,,,,,,,,,,,,,,,,,,,,,,,,,,,,,,,,,,,,,,,/muse/elements/blink
2025-05-02 21:07:26.527,1.468080769424214,0.286641126867591,0,1.30296770277381,0.9722284067924635,0.04228818647288731,0,0.5523004534489924,0.8055610727492974,0.2141926957996199,0,0.5839339896329087,0.5572119904980908,0.854704942859822,0,0.6491361585846928,0.2967219180983153,0.1831805190247489,0,0.15866826453569,737.7655677655678,823.1868131868132,713.1868131868132,933.992673992674,468.6080586080586,-0.058228,-0.023315,1.042480,1.854248,5.428162,5.203857,415018.315018,127385641.025641,73525128.205128,76.711449,1,2,1,2,2,80.000000
2025-05-02 21:07:27.528,1.468080769424214,0.286641126867591,0,1.30296770277381,0.9722284067924635,0.04228818647288731,0,0.5523004534489924,0.8055610727492974,0.2141926957996199,0,0.5839339896329087,0.5572119904980908,0.854704942859822,0,0.6491361585846928,0.2967219180983153,0.1831805190247489,0,0.15866826453569,827.6190476190476,796.1904761904763,636.6300366300367,882.014652014652,942.0512820512821,-0.051819,-0.022278,1.007629,0.755157,-0.755157,2.056122,415824.175824,127318754.578755,73311575.091575,76.832397,1,2,1,2,2,80.000000
2025-05-02 21:07:28.528,1.468080769424214,0.286641126867591,0,1.30296770277381,0.9722284067924635,0.04228818647288731,0,0.5523004534489924,0.8055610727492974,0.2141926957996199,0,0.5839339896329087,0.5572119904980908,0.854704942859822,0,0.6491361585846928,0.2967219180983153,0.1831805190247489,0,0.15866826453569,825.2014652014652,797.3992673992674,679.3406593406594,815.934065934066,701.5018315018315,-0.043213,-0.025818,0.995300,0.755157,3.177643,4.852448,415824.175824,127449304.029304,73934505.494505,76.832397,1,2,1,2,2,80.000000
2025-05-02 21:07:29.542,1.468080769424214,0.5544524452930477,0,1.30296770277381,0.9722284067924635,0.5437948271230475,0,0.5523004534489924,0.8055610727492974,0.7480209960234284,0,0.5839339896329087,0.5572119904980908,0.759146672608734,0,0.6491361585846928,0.2967219180983153,0.08308196599280257,0,0.15866826453569,875.5677655677656,832.0512820512821,1063.333333333333,890.4761904761905,709.5604395604396,-0.047974,-0.014343,1.006653,1.188812,-1.435547,0.942078,417435.897436,127454945.054945,74497802.197802,76.832397,1,2,1,2,2,80.000000
2025-05-02 21:07:30.527,1.468080769424214,0.454782299838236,0,1.178777986227269,0.9722284067924635,0.1173136663441308,0,1.158708019440293,0.8055610727492974,0.4421767089653721,0,0.9711406270030161,0.5572119904980908,0.7100884339478087,0,0.9397374490890074,0.2967219180983153,0.1305605644365382,0,0.8415037249992929,856.2271062271062,796.5934065934066,875.5677655677656,961.7948717948718,746.2271062271062,-0.047852,-0.006470,1.005920,0.157013,1.061707,-0.837402,413406.593407,127132600.732601,74633992.673993,76.832397,1,1,1,2,1,80.000000
2025-05-02 21:07:31.539,1.468080769424214,0.5595998620288395,0,1.126595787171668,0.9722284067924635,-0.01413555941981656,0,0.8423763703876759,0.8055610727492974,0.2559241219858881,0,0.9131849273522962,0.5572119904980908,0.6819233250266908,0,0.8728307235859929,0.2967219180983153,0.1234959006855018,0,1.010725206738231,833.6630036630037,796.5934065934066,766.7765567765568,777.6556776556777,710.3663003663004,-0.068726,-0.018372,0.996765,-0.927124,-2.826233,-0.276642,410989.010989,126975457.875458,74526813.186813,78.186562,1,1,1,2,1,80.000000
2025-05-02 21:07:32.528,0.897980957676478,0.7049533149168988,0,0.8054571679466626,0.4867229667975925,0.1106505328950276,0,0.4246290288847868,0.7899774013993726,0.2053881007471497,0,0.9615107917375821,0.5695902325670226,0.640075965302058,0,0.8354762770269228,0.2236055829243491,0.1779812733097393,0,0.9085824853743968,864.2857142857143,799.4139194139194,1106.849816849817,836.8864468864469,675.3113553113553,-0.048035,0.010437,1.010254,1.121521,-1.839294,2.990723,417435.897436,126535457.875458,74086813.186813,77.852798,1,1,1,2,1,80.000000
2025-05-02 21:07:33.531,0.897980957676478,0.7242519725761825,0,0.8054571679466626,0.4867229667975925,0.2284163974328124,0,0.4246290288847868,0.7899774013993726,0.2734478289696353,0,0.9615107917375821,0.5695902325670226,0.6900109219449015,0,0.8354762770269228,0.2236055829243491,0.2138254184850648,0,0.9085824853743968,841.7216117216118,782.0879120879121,684.981684981685,876.7765567765568,814.3223443223443,-0.059387,-0.006775,1.007141,1.667328,-2.736511,0.598145,414212.454212,126477435.897436,74436556.776557,75.258240,1,1,1,2,1,80.000000
2025-05-02 21:07:34.528,0.897980957676478,0.5807156581027124,0,0.8054571679466626,0.4867229667975925,0.1269561500196725,0,0.4246290288847868,0.7899774013993726,0.2734478289696353,0,0.9615107917375821,0.5695902325670226,0.6087069232939306,0,0.8354762770269228,0.2236055829243491,0.1665680378216046,0,0.9085824853743968,788.9377289377289,784.9084249084249,545.9706959706959,704.3223443223443,617.6923076923077,-0.055176,-0.005981,1.002991,1.158905,0.485992,0.672913,417435.897436,126702271.062271,75283516.483516,94.802589,1,1,1,2,1,80.000000
2025-05-02 21:07:35.421,,,,,,,,,,,,,,,,,,,,,,,,,,,,,,,,,,,,,,,,,,/muse/elements/blink
2025-05-02 21:07:35.528,0.897980957676478,0.4033393131099161,0,0.8054571679466626,0.4867229667975925,0.2260763718550107,0,0.4246290288847868,0.7899774013993726,0.2399044693158383,0,0.9615107917375821,0.5695902325670226,0.91720605518348,0,0.8354762770269228,0.2236055829243491,0.2740414296980405,0,0.9085824853743968,851.7948717948718,801.8315018315019,1093.150183150183,914.2490842490843,625.3479853479854,-0.046082,-0.004883,1.013794,-0.822449,1.158905,-1.585083,418241.758242,126365421.245421,75540586.080586,93.132179,1,2,1,2,2,80.000000
2025-05-02 21:07:36.528,0.897980957676478,0.3705615229857244,0,0.8054571679466626,0.4867229667975925,0.2492206727433774,0,0.4246290288847868,0.7899774013993726,0.2299403036054765,0,0.9615107917375821,0.5695902325670226,0.8580907011274427,0,0.8354762770269228,0.2236055829243491,0.1328619712341946,0,0.9085824853743968,807.8754578754579,765.9706959706959,569.7435897435897,856.2271062271062,962.6007326007326,-0.047302,-0.015930,1.006958,0.254211,0.186920,2.041168,413406.593407,126288058.608059,75589743.589744,84.575981,1,2,1,2,2,80.000000
2025-05-02 21:07:37.528,0.736677722647276,0.3316322096806804,0,0.8556286228573403,0.5818494516112682,0.1949065321903469,0,0.6997634085509123,0.4133688741162332,0.3608828918444384,0,0.9651524259524936,0.504581341749495,0.6060755524843191,0,0.8514925876682291,0.00609547250431783,-0.1647532430576948,0,0.3033736211475951,728.901098901099,794.1758241758242,480.2930402930403,703.919413919414,572.5641025641025,-0.037903,-0.008667,1.007751,1.061707,-1.517792,0.373840,417435.897436,126446813.186813,75645347.985348,84.575981,1,1,1,2,1,80.000000
2025-05-02 21:07:37.573,,,,,,,,,,,,,,,,,,,,,,,,,,,,,,,,,,,,,,,,,,/muse/elements/blink
2025-05-02 21:07:38.528,0.7016900809590597,0.8067564164170808,0,1.232433825276708,0.5430617325706082,0.4519107470093929,0,1.151711219811697,0.3780778714292949,0.5980138773401704,0,1.071489235897645,0.5072010176910452,0.5525866823869454,0,0.8083658601674226,-0.02599161890940805,0.008546995549568889,0,0.2266848895142492,865.0915750915751,778.0586080586081,1031.501831501831,903.3699633699634,654.7619047619048,-0.032654,-0.036011,1.004517,0.224304,-1.211243,-0.777588,419853.479853,126060805.860806,75649377.289377,84.575981,1,1,1,2,1,80.000000
2025-05-02 21:07:39.527,1.036125167652473,0.9112040890483093,0,1.138800374736764,0.5765661084848021,0.5913512333339049,0,0.9671780465018921,0.6861574167126412,0.5944124963825401,0,1.000421161620647,0.5409832544480767,0.5324582240643365,0,0.7278846390869712,0.09045872249799371,-0.07558938455326239,0,0.08113970137876933,795.7875457875458,754.2857142857143,659.1941391941392,853.4065934065934,813.5164835164835,-0.016785,-0.029297,1.003174,1.435547,-0.463562,0.052338,417435.897436,126098681.318681,75690476.190476,83.530426,1,1,1,2,1,80.000000
2025-05-02 21:07:40.398,,,,,,,,,,,,,,,,,,,,,,,,,,,,,,,,,,,,,,,,,,/muse/elements/blink
2025-05-02 21:07:40.534,0.7393002829875258,0.4012804613525518,0,0.8462576840883521,0.4340724116830886,0.2953204756556441,0,0.5947259527196811,0.5511836453644355,0.2172713034336513,0,0.6263396029859923,0.420268056172631,0.5502252279662163,0,0.6159400136218866,0.08820033773020103,0.04325087768761657,0,0.07323821396304309,865.0915750915751,780.0732600732601,885.6410256410256,832.0512820512821,591.9047619047619,-0.019409,-0.025635,1.008240,0.672913,-1.136475,-2.489777,411794.871795,126292893.772894,75732380.952381,81.557144,1,1,1,2,1,80.000000
2025-05-02 21:07:41.540,0.5163529217811343,0.9459942306016506,0,0.6664460364861996,0.645951973663326,0.6371391937655981,0,0.5619003779511337,0.1323468597175495,0.3032593652352766,0,0.4691872236219642,0.3596021999198187,0.669113904108719,0,0.5582461101484797,-0.001967269400566295,0.03153057219071201,0,0.06745720553730712,831.2454212454213,779.2673992673992,1029.487179487179,883.2234432234433,770,-0.020142,-0.006348,1.009888,0.568237,-2.915955,-0.448608,419853.479853,126371868.131868,75360073.260073,78.995590,1,1,1,2,1,80.000000
2025-05-02 21:07:41.610,,,,,,,,,,,,,,,,,,,,,,,,,,,,,,,,,,,,,,,,,,/muse/elements/blink
2025-05-02 21:07:42.527,0.5163529217811343,0.68671052981477,0,0.6664460364861996,0.645951973663326,0.1875215521569721,0,0.5619003779511337,0.1323468597175495,0.2353106756319216,0,0.4691872236219642,0.3596021999198187,0.6734600974962964,0,0.5582461101484797,-0.001967269400566295,-0.1468624434100703,0,0.06745720553730712,767.1794871794872,761.1355311355312,607.6190476190476,848.5714285714286,802.2344322344322,-0.013306,-0.003113,1.006592,1.689758,-1.614990,0.328979,414212.454212,126355750.915751,75965274.725275,76.162148,1,1,1,2,1,80.000000
2025-05-02 21:07:43.434,,,,,,,,,,,,,,,,,,,,,,,,,,,,,,,,,,,,,,,,,,/muse/elements/blink
2025-05-02 21:07:43.529,1.049259754088229,0.8142005630844433,0,0.6664460364861996,0.6638995571581239,0.2530729101751309,0,0.5619003779511337,0.573661819046336,0.199422084428636,0,0.4691872236219642,0.3856259911143635,0.6004674543215127,0,0.5582461101484797,-0.1806065721740817,-0.1808426670394543,0,0.06745720553730712,801.025641025641,759.92673992674,518.1684981684982,778.4615384615385,548.3882783882784,-0.022522,0.018372,1.013428,1.226196,-5.286102,2.429962,410183.150183,126348498.168498,75892747.252747,75.382568,1,1,1,2,1,80.000000
2025-05-02 21:07:44.058,,,,,,,,,,,,,,,,,,,,,,,,,,,,,,,,,,,,,,,,,,/muse/elements/blink
2025-05-02 21:07:44.527,1.009643786423231,0.746280654508004,0,0.6664460364861996,0.6357048786413871,0.2646511742308152,0,0.5619003779511337,0.4989534975579167,0.09230459850252178,0,0.4691872236219642,0.42558144686345,0.5655091828856181,0,0.5582461101484797,-0.2125179313730279,-0.2522303115446163,0,0.06745720553730712,847.7655677655678,773.2234432234433,1046.007326007326,896.9230769230769,618.4981684981685,0.006897,0.008545,1.010803,-0.134583,-2.826233,-0.433655,416630.036630,126347692.307692,75990256.410256,75.382568,1,1,1,2,1,80.000000
2025-05-02 21:07:45.367,,,,,,,,,,,,,,,,,,,,,,,,,,,,,,,,,,,,,,,,,,/muse/elements/blink
2025-05-02 21:07:45.527,1.306861533621047,0.8958869927375371,0,0.6790724744747881,0.9271712603197272,0.5712051194877091,0,0.7048553582191098,0.951035001310904,0.2377132305800374,0,0.8091822414637581,0.5612918223983918,0.6359331084774907,0,0.5329936001079779,0.2294579727968015,-0.002665156038576837,0,0.5338375154763313,769.1941391941392,759.5238095238095,562.0879120879121,810.6959706959707,860.6593406593407,-0.003784,0.019470,1.014221,1.308441,-0.553284,0.897217,412600.732601,126603956.043956,76002344.322344,74.288582,1,1,1,2,1,80.000000
2025-05-02 21:07:46.530,1.482915876743541,0.8323857873759762,0,0.6790724744747881,1.055860655163412,0.5337478855404147,0,0.7048553582191098,0.962116360194761,0.3581331713060454,0,0.8091822414637581,0.5804739797046669,0.7240679444847289,0,0.5329936001079779,0.1600429370649495,-0.1195533259851969,0,0.5338375154763313,763.1501831501831,779.2673992673992,461.7582417582418,718.021978021978,525.4212454212454,-0.002563,0.004211,1.007751,-0.672913,-1.278534,-0.672913,412600.732601,126737728.937729,75870183.150183,71.450630,1,1,1,2,1,75.000000
2025-05-02 21:07:46.583,,,,,,,,,,,,,,,,,,,,,,,,,,,,,,,,,,,,,,,,,,/muse/elements/blink
2025-05-02 21:07:46.818,,,,,,,,,,,,,,,,,,,,,,,,,,,,,,,,,,,,,,,,,,/muse/elements/blink
2025-05-02 21:07:47.529,1.578670191146882,0.2469870367880009,0,0.6790724744747881,1.088851119362982,0.01217657923293415,0,0.7048553582191098,0.961498629648653,0.3428734996688462,0,0.8091822414637581,0.6188804480233402,0.6191144658695296,0,0.5329936001079779,0.1438932938134631,0.0531876681832377,0,0.5338375154763313,820.3663003663004,798.6080586080586,1033.919413919414,892.0879120879121,713.1868131868132,-0.017883,0.005859,1.013245,0.912170,-2.332764,0.224304,416630.036630,126707912.087912,75892747.252747,69.811218,1,1,1,2,1,75.000000
2025-05-02 21:07:47.693,,,,,,,,,,,,,,,,,,,,,,,,,,,,,,,,,,,,,,,,,,/muse/elements/blink
2025-05-02 21:07:48.036,,,,,,,,,,,,,,,,,,,,,,,,,,,,,,,,,,,,,,,,,,/muse/elements/blink
2025-05-02 21:07:48.527,1.578670191146882,1.002338790906929,0,0.6790724744747881,1.088851119362982,0.6438698543652466,0,0.7048553582191098,0.961498629648653,0.5606920034492431,0,0.8091822414637581,0.6188804480233402,0.6628231943553392,0,0.5329936001079779,0.1438932938134631,0.002153963751375684,0,0.5338375154763313,795.3846153846154,765.5677655677656,601.5750915750916,819.1575091575091,741.7948717948718,-0.009766,0.009583,1.005798,0.471039,-0.321503,-0.829926,413406.593407,126485494.505495,75717069.597070,69.755249,1,2,1,2,2,75.000000
2025-05-02 21:07:48.651,,,,,,,,,,,,,,,,,,,,,,,,,,,,,,,,,,,,,,,,,,/muse/elements/blink
2025-05-02 21:07:49.251,,,,,,,,,,,,,,,,,,,,,,,,,,,,,,,,,,,,,,,,,,/muse/elements/blink
2025-05-02 21:07:49.444,,,,,,,,,,,,,,,,,,,,,,,,,,,,,,,,,,,,,,,,,,/muse/elements/blink
2025-05-02 21:07:49.527,1.578670191146882,0.9774625276292926,0,0.6790724744747881,1.088851119362982,0.5998890968787319,0,0.7048553582191098,0.961498629648653,0.4021399500840453,0,0.8091822414637581,0.6188804480233402,0.5878662248036728,0,0.5329936001079779,0.1438932938134631,-0.01877666486112914,0,0.5338375154763313,824.7985347985348,776.0439560439561,556.4468864468864,712.3809523809524,531.8681318681319,-0.029297,0.005737,1.003662,-0.209351,0.239258,-0.351410,418241.758242,126284029.304029,75804102.564103,70.975288,1,2,1,2,2,75.000000
2025-05-02 21:07:50.242,,,,,,,,,,,,,,,,,,,,,,,,,,,,,,,,,,,,,,,,,,/muse/elements/blink
2025-05-02 21:07:50.532,1.578670191146882,0.6160393673637927,0,0.6790724744747881,1.088851119362982,0.4798644173133079,0,0.7048553582191098,0.961498629648653,0.543092898316902,0,0.8091822414637581,0.6188804480233402,0.5952986321537468,0,0.5329936001079779,0.1438932938134631,-0.1531925367992832,0,0.5338375154763313,878.7912087912089,778.0586080586081,864.6886446886447,900.5494505494506,1098.791208791209,-0.022095,0.008118,1.010986,0.889740,1.712189,0.829926,415824.175824,126311428.571429,75783150.183150,72.262794,1,2,1,2,2,75.000000
2025-05-02 21:07:50.651,,,,,,,,,,,,,,,,,,,,,,,,,,,,,,,,,,,,,,,,,,/muse/elements/blink
2025-05-02 21:07:51.526,1.578670191146882,0.9234861506225807,0,0.6790724744747881,1.088851119362982,0.8160817997870837,0,0.7048553582191098,0.961498629648653,0.4383898740552983,0,0.8091822414637581,0.6188804480233402,0.5985236448567296,0,0.5329936001079779,0.1438932938134631,-0.08842937454886778,0,0.5338375154763313,794.5787545787546,772.4175824175825,591.9047619047619,786.5201465201466,672.4908424908425,-0.046265,-0.009583,1.002014,1.278534,-3.170166,-0.657959,412600.732601,126311428.571429,75877435.897436,72.689484,1,2,1,2,2,75.000000
2025-05-02 21:07:51.873,,,,,,,,,,,,,,,,,,,,,,,,,,,,,,,,,,,,,,,,,,/muse/elements/blink
2025-05-02 21:07:52.527,1.578670191146882,0.4164271106886271,0,0.6790724744747881,1.088851119362982,0.1756689124446436,0,0.7048553582191098,0.961498629648653,-0.03194067864111617,0,0.8091822414637581,0.6188804480233402,0.7004576907208414,0,0.5329936001079779,0.1438932938134631,0.2418911907861498,0,0.5338375154763313,763.1501831501831,781.2820512820513,485.5311355311355,717.6190476190476,626.959706959707,-0.048767,-0.007751,1.007996,0.777588,-0.650482,0.328979,416630.036630,126339633.699634,76012820.512821,73.873810,1,2,1,2,2,75.000000
2025-05-02 21:07:53.196,,,,,,,,,,,,,,,,,,,,,,,,,,,,,,,,,,,,,,,,,,/muse/elements/blink
2025-05-02 21:07:53.526,0.687095818143227,0.450589570942259,0,1.046175793286403,0.5670945604369199,0.1833571209477039,0,0.6063852485017682,0.7123889756564459,0.4320067313707285,0,0.6278720199983403,0.5159946239159825,0.6928583549857483,0,0.3657604973840373,0.05209620748866409,0.09636848176868509,0,0.09815597307297332,840.5128205128206,793.7728937728938,1000.07326007326,892.4908424908425,803.4432234432235,-0.014160,-0.015442,1.005432,-0.186920,-2.355194,-1.405640,415018.315018,126342051.282051,75771868.131868,75.892456,1,1,1,2,1,75.000000
2025-05-02 21:07:54.500,,,,,,,,,,,,,,,,,,,,,,,,,,,,,,,,,,,,,,,,,,/muse/elements/blink
2025-05-02 21:07:54.527,0.846173785626812,0.6559629719398971,0,1.063696308354458,0.7342099143469892,0.4143940579098592,0,0.5843537931532433,0.5442585305904569,0.461780165819291,0,0.6981459542319173,0.5131049378265533,0.7677522876002149,0,0.5043361060599399,0.07437401716284781,0.0474258546089093,0,0.1471525242009191,799.8168498168499,745.8241758241759,649.1208791208792,835.2747252747253,742.6007326007326,-0.042908,-0.008484,0.999512,1.338348,1.562653,-0.628052,410989.010989,126408131.868132,76815457.875458,77.395554,1,1,1,2,1,75.000000
2025-05-02 21:07:55.527,0.8912826773487699,0.7770731091738021,0,0.9734676482501649,0.8628982048235853,0.7137727180290138,0,0.7582207576380753,0.108490245241731,0.3148714321217543,0,0.5032206314636489,0.4554259530620324,0.9806549845135006,0,0.6699086107315742,0.05363036679654377,0.2933884299210874,0,0.199410870564629,754.6886446886447,893.2967032967033,504.4688644688645,718.021978021978,461.7582417582418,-0.004578,-0.005554,1.010132,1.839294,-1.211243,0.515900,419853.479853,126112380.952381,75975750.915751,80.231926,1,1,1,2,1,75.000000
2025-05-02 21:07:55.618,,,,,,,,,,,,,,,,,,,,,,,,,,,,,,,,,,,,,,,,,,/muse/elements/blink
2025-05-02 21:07:56.527,0.8912826773487699,0.7770731091738021,0,1.116268909118182,0.8628982048235853,0.7137727180290138,0,1.075199087903689,0.108490245241731,0.3148714321217543,0,0.736061381373609,0.4554259530620324,0.9806549845135006,0,0.7175625388287299,0.05363036679654377,0.2933884299210874,0,0.0387010042357219,860.2564102564103,1067.765567765568,967.8388278388279,892.893772893773,684.1758241758242,-0.023743,0.002441,1.005066,0.971985,-1.061707,-0.059814,422271.062271,124383003.663004,81881098.901099,82.012032,1,1,1,2,1,75.000000
2025-05-02 21:07:56.943,,,,,,,,,,,,,,,,,,,,,,,,,,,,,,,,,,,,,,,,,,/muse/elements/blink
2025-05-02 21:07:57.530,0.8912826773487699,0.7770731091738021,0,1.116268909118182,0.8628982048235853,0.7137727180290138,0,1.075199087903689,0.108490245241731,0.3148714321217543,0,0.736061381373609,0.4554259530620324,0.9806549845135006,0,0.7175625388287299,0.05363036679654377,0.2933884299210874,0,0.0387010042357219,746.2271062271062,770.4029304029305,532.2710622710623,767.5824175824176,846.1538461538462,-0.007385,0.002380,1.004456,0.575714,-0.515900,-0.000000,415018.315018,125500732.600733,80612673.992674,82.012032,1,1,1,2,1,75.000000
2025-05-02 21:07:58.292,,,,,,,,,,,,,,,,,,,,,,,,,,,,,,,,,,,,,,,,,,/muse/elements/blink
2025-05-02 21:07:58.527,0.6688441219856049,0.7770731091738021,0,1.147822353999366,0.3833352500145273,0.7137727180290138,0,0.9083885599305398,0.5946529807058321,0.3148714321217543,0,1.066435495529543,0.4842857880301197,0.9806549845135006,0,0.7317589449998397,-0.1513098968771369,0.2933884299210874,0,0.05058969104194107,762.7472527472528,784.9084249084249,561.2820512820513,724.0659340659341,489.1575091575092,-0.019775,-0.000183,1.006531,-0.284119,-1.106567,-0.381317,420659.340659,125807765.567766,80710183.150183,82.012032,1,1,1,2,1,75.000000
2025-05-02 21:07:59.095,,,,,,,,,,,,,,,,,,,,,,,,,,,,,,,,,,,,,,,,,,/muse/elements/blink
2025-05-02 21:07:59.532,0.31278146378491,0.6202033339442039,0,1.139989999691544,0.7211145371126604,-0.09546807889218334,0,1.020076463473804,0.9030971520843036,0.1970736716620357,0,1.056908648957022,0.4763546924005724,0.4639336405770854,0,0.747238477935903,-0.05836822952863441,-0.132873288646218,0,0.03795812691116047,617.2893772893773,788.5347985347986,934.7985347985348,846.5567765567765,685.3846153846154,-0.000427,0.003540,1.012756,0.927124,-1.465454,-0.500946,417435.897436,127095531.135531,81921391.941392,82.012032,1,1,1,2,1,75.000000
2025-05-02 21:07:59.694,,,,,,,,,,,,,,,,,,,,,,,,,,,,,,,,,,,,,,,,,,/muse/elements/blink
2025-05-02 21:07:59.909,,,,,,,,,,,,,,,,,,,,,,,,,,,,,,,,,,,,,,,,,,/muse/elements/blink
2025-05-02 21:08:00.529,0.2782554001018615,0.6471605322992042,0,1.121154912088805,0.8803431737458374,-0.1720647995442542,0,1.061087192387162,0.9030971520843036,0.1962359503247167,0,1.031169026164321,0.4583778414206948,0.4114592167683822,0,0.7515861342418578,-0.009871233956940628,-0.1170655490546925,0,0.08337489948308185,756.3003663003664,771.6117216117216,522.6007326007326,770,729.3040293040293,-0.000793,0.008545,1.003723,0.545807,0.067291,-0.000000,413406.593407,126463736.263736,80821391.941392,77.956192,1,1,1,2,1,75.000000
2025-05-02 21:08:01.012,,,,,,,,,,,,,,,,,,,,,,,,,,,,,,,,,,,,,,,,,,/muse/elements/blink
2025-05-02 21:08:01.526,0.2782554001018615,0.5810286118360938,0,1.121154912088805,0.8803431737458374,0.2717321340645478,0,1.061087192387162,0.9030971520843036,0.4054807664642861,0,1.031169026164321,0.4583778414206948,0.5376478818343996,0,0.7515861342418578,-0.009871233956940628,0.07480039172391902,0,0.08337489948308185,856.6300366300367,752.2710622710623,617.2893772893773,794.5787545787546,512.9304029304029,-0.009277,-0.010376,1.006042,1.031799,-2.071075,0.396271,419853.479853,126089816.849817,80619926.739927,77.582329,1,1,1,2,1,75.000000
2025-05-02 21:08:02.239,,,,,,,,,,,,,,,,,,,,,,,,,,,,,,,,,,,,,,,,,,/muse/elements/blink
2025-05-02 21:08:02.527,0.2782554001018615,0.6325533518952746,0,1.121154912088805,0.8803431737458374,0.316600515563922,0,1.061087192387162,0.9030971520843036,0.4054807664642861,0,1.031169026164321,0.4583778414206948,0.5489152581979704,0,0.7515861342418578,-0.009871233956940628,0.07007312636250687,0,0.08337489948308185,836.8864468864469,798.6080586080586,948.4981684981685,913.4432234432235,713.5897435897436,-0.014709,-0.002686,1.006836,0.800018,-2.145844,0.657959,414212.454212,126164761.904762,80748058.608059,77.582329,1,2,1,2,2,75.000000
2025-05-02 21:08:03.372,,,,,,,,,,,,,,,,,,,,,,,,,,,,,,,,,,,,,,,,,,/muse/elements/blink
2025-05-02 21:08:03.526,0.2782554001018615,0.2010047673663871,0,1.121154912088805,0.8803431737458374,0.3096675873146382,0,1.061087192387162,0.9030971520843036,-0.001719355724273694,0,1.031169026164321,0.4583778414206948,0.7844676519994591,0,0.7515861342418578,-0.009871233956940628,0.01550572280853429,0,0.08337489948308185,701.5018315018315,775.2380952380953,442.4175824175824,813.5164835164835,687.3992673992674,0.012878,0.014587,1.009827,0.986938,-1.816864,0.934601,410989.010989,126178461.538462,81044615.384615,76.130516,1,2,1,2,2,75.000000
2025-05-02 21:08:04.536,0.2782554001018615,0.4558414943931249,0,1.121154912088805,0.8803431737458374,0.4619880971611012,0,1.061087192387162,0.9030971520843036,0.1652972016487999,0,1.031169026164321,0.4583778414206948,0.6421162281623514,0,0.7515861342418578,-0.009871233956940628,-0.002840155450163686,0,0.08337489948308185,909.8168498168499,805.8608058608058,1078.241758241758,875.9706959706959,598.7545787545788,-0.007690,-0.000671,1.003601,-0.590668,-1.749573,-0.471039,410989.010989,126346080.586081,80587692.307692,75.370537,1,2,1,2,2,75.000000
2025-05-02 21:08:04.868,,,,,,,,,,,,,,,,,,,,,,,,,,,,,,,,,,,,,,,,,,/muse/elements/blink
2025-05-02 21:08:05.538,0.2782554001018615,0.5360564084925673,0,1.121154912088805,0.8803431737458374,0.1087428984333103,0,1.061087192387162,0.9030971520843036,0.1579268637833731,0,1.031169026164321,0.4583778414206948,0.4656707528100855,0,0.7515861342418578,-0.009871233956940628,-0.1263698763254046,0,0.08337489948308185,859.4505494505495,784.1025641025641,966.2271062271062,898.9377289377289,801.025641025641,-0.015808,-0.008179,0.999390,0.874786,-1.031799,-0.089722,415824.175824,126326739.926740,80614285.714286,75.191147,1,2,1,2,2,75.000000
2025-05-02 21:08:06.235,,,,,,,,,,,,,,,,,,,,,,,,,,,,,,,,,,,,,,,,,,/muse/elements/blink
2025-05-02 21:08:06.533,0.2782554001018615,0.8153515897006368,0,1.721000648916185,0.8803431737458374,0.3365068079605712,0,1.470136042269574,0.9030971520843036,0.1844099051025571,0,1.229604161793286,0.4583778414206948,0.543088912687014,0,0.8004507245730399,-0.009871233956940628,-0.1670924579410493,0,-0.009040139995128232,769.5970695970697,782.4908424908425,574.981684981685,778.4615384615385,762.3443223443223,-0.017273,-0.001892,1.003540,0.089722,-1.555176,-0.800018,413406.593407,126244542.124542,80473260.073260,75.014008,1,1,1,2,1,75.000000
2025-05-02 21:08:07.527,0.2782554001018615,0.6655797491003138,0,1.296310314106233,0.8803431737458374,0.1480458177215758,0,0.8849049089363946,0.9030971520843036,0.137933374306745,0,0.9405329651982003,0.4583778414206948,0.490961772577683,0,0.6434881615757958,-0.009871233956940628,-0.2171372450962966,0,0.05031458278302534,869.1208791208792,800.6227106227107,601.978021978022,722.8571428571429,707.1428571428571,-0.031128,-0.004395,1.010376,-1.300964,-1.084137,0.919647,418241.758242,126144615.384615,80402344.322344,74.249786,1,1,1,2,1,75.000000
2025-05-02 21:08:07.620,,,,,,,,,,,,,,,,,,,,,,,,,,,,,,,,,,,,,,,,,,/muse/elements/blink
2025-05-02 21:08:08.527,0.2782554001018615,0.8007406009896331,0,1.059405372153096,0.8803431737458374,0.3952909595343461,0,0.8975323423097616,0.9030971520843036,0.09262598835595182,0,0.6137865571332312,0.4583778414206948,0.4136371122475546,0,0.6016905252793697,-0.009871233956940628,-0.2768066246164045,0,-0.02416876036003142,840.5128205128206,770.4029304029305,920.6959706959707,871.941391941392,713.992673992674,-0.007324,-0.009827,1.007874,1.256104,-1.420593,-0.800018,414212.454212,126213919.413919,80785934.065934,74.011108,1,1,1,2,1,75.000000
2025-05-02 21:08:08.830,,,,,,,,,,,,,,,,,,,,,,,,,,,,,,,,,,,,,,,,,,/muse/elements/blink
2025-05-02 21:08:09.526,0.2782554001018615,0.8007406009896331,0,1.059405372153096,0.8803431737458374,0.3952909595343461,0,0.8975323423097616,0.9030971520843036,0.09262598835595182,0,0.6137865571332312,0.4583778414206948,0.4136371122475546,0,0.6016905252793697,-0.009871233956940628,-0.2768066246164045,0,-0.02416876036003142,730.9157509157509,788.5347985347986,520.1831501831502,770.4029304029305,689.8168498168499,-0.009033,-0.000183,1.005127,-0.328979,-0.568237,-0.702820,409377.289377,130298827.838828,81410476.190476,73.590126,1,1,1,2,1,75.000000
2025-05-02 21:08:09.981,,,,,,,,,,,,,,,,,,,,,,,,,,,,,,,,,,,,,,,,,,/muse/elements/blink
2025-05-02 21:08:10.543,0.2782554001018615,0.8007406009896331,0,1.059405372153096,0.8803431737458374,0.3952909595343461,0,0.8975323423097616,0.9030971520843036,0.09262598835595182,0,0.6137865571332312,0.4583778414206948,0.4136371122475546,0,0.6016905252793697,-0.009871233956940628,-0.2768066246164045,0,-0.02416876036003142,879.5970695970697,797.3992673992674,1101.208791208791,886.4468864468864,612.0512820512821,-0.015320,-0.007080,1.002563,0.523376,-0.942078,1.024323,410989.010989,129923296.703297,81354871.794872,75.306419,1,2,1,2,2,75.000000
2025-05-02 21:08:11.200,,,,,,,,,,,,,,,,,,,,,,,,,,,,,,,,,,,,,,,,,,/muse/elements/blink
2025-05-02 21:08:11.542,0.7759589105938169,0.8007406009896331,0,1.032771617739183,0.319939227177107,0.3952909595343461,0,0.7488578754613493,0.6264077697208461,0.09262598835595182,0,0.7895573565021188,0.5046452930067215,0.4136371122475546,0,0.6476505287420653,0.007930879222667093,-0.2768066246164045,0,0.3360095240169063,810.2930402930403,783.2967032967033,857.4358974358975,877.5824175824176,801.8315018315019,-0.015991,0.007751,1.010925,0.717773,-2.153320,-0.373840,411794.871795,129656556.776557,81106666.666667,75.306419,1,2,1,2,2,75.000000
2025-05-02 21:08:12.506,,,,,,,,,,,,,,,,,,,,,,,,,,,,,,,,,,,,,,,,,,/muse/elements/blink
2025-05-02 21:08:12.527,0.7585108601372879,0.5825742448649375,0,1.020726379415553,0.2151670596694271,-0.2395228273224147,0,0.6472198257447164,0.6317765782906496,0.1565197175181655,0,0.8085067561708577,0.5356381406591468,0.5345182569531687,0,0.5900861597150633,0.1081192918430319,-0.1925086455231854,0,0.2167732027518865,749.8534798534798,758.3150183150184,533.0769230769231,766.3736263736264,669.2673992673992,-0.034790,-0.013489,1.006104,-0.777588,-2.579498,0.112152,412600.732601,128745934.065934,80293553.113553,75.306419,1,1,1,2,1,75.000000
2025-05-02 21:08:13.527,0.7403323754177344,0.6141888846976687,0,1.008337510860287,0.07679992426354827,-0.237871181610023,0,0.5142848135064427,0.3821954207632907,0.1414393680909468,0,0.5083973708470632,0.5645657874335831,0.5489417870093192,0,0.523708819970733,0.1894724689897845,-0.2131865578477594,0,0.05186695039129763,766.7765567765568,782.893772893773,566.1172161172161,714.7985347985348,504.0659340659341,-0.019836,-0.011475,1.004822,0.912170,-1.764526,0.164490,415824.175824,128870036.630037,80511941.391941,75.306419,1,1,1,2,1,75.000000
2025-05-02 21:08:13.708,,,,,,,,,,,,,,,,,,,,,,,,,,,,,,,,,,,,,,,,,,/muse/elements/blink
2025-05-02 21:08:14.531,1.098997691421842,0.6141888846976687,0,0.886733234606852,0.9553804454272049,-0.237871181610023,0,0.9855633768729691,0.8449850048706476,0.1414393680909468,0,1.097252916995134,0.4952615774841685,0.5489417870093192,0,0.7556261857907058,-0.05502174225617624,-0.2131865578477594,0,0.1551319870707347,823.1868131868132,792.967032967033,855.0183150183151,851.3919413919414,794.1758241758242,-0.000732,-0.009277,1.009216,0.650482,-0.246735,0.964508,416630.036630,128342197.802198,80603809.523810,75.306419,1,1,1,2,1,75.000000
2025-05-02 21:08:14.842,,,,,,,,,,,,,,,,,,,,,,,,,,,,,,,,,,,,,,,,,,/muse/elements/blink
2025-05-02 21:08:15.039,,,,,,,,,,,,,,,,,,,,,,,,,,,,,,,,,,,,,,,,,,/muse/elements/blink
2025-05-02 21:08:15.526,0.9516396885291685,0.6141888846976687,0,0.7287285240575703,0.7270502510588459,-0.237871181610023,0,0.9846574497722209,0.851779648020955,0.1414393680909468,0,0.8980654005996737,0.5158580023099175,0.5489417870093192,0,0.6973522411301425,-0.116308475391392,-0.2131865578477594,0,0.2981710347734111,717.2161172161173,701.5018315018315,477.0695970695971,748.6446886446887,596.7399267399268,0.004700,-0.005554,1.015625,0.964508,-2.160797,-0.321503,416630.036630,125480586.080586,81474139.194139,75.306419,1,1,1,2,1,75.000000
2025-05-02 21:08:16.434,,,,,,,,,,,,,,,,,,,,,,,,,,,,,,,,,,,,,,,,,,/muse/elements/blink
2025-05-02 21:08:16.534,1.279480026820191,0.6141888846976687,0,1.338164241159284,0.5478695478031801,-0.237871181610023,0,0.6003624738588442,0.5863466077215173,0.1414393680909468,0,0.4071356706585058,0.4124532626440452,0.5489417870093192,0,0.6923138677002241,0.008296706267529682,-0.2131865578477594,0,0.0630491506850591,794.981684981685,790.1465201465202,637.032967032967,735.7509157509157,664.8351648351648,-0.021790,0.005859,1.006470,2.796326,-0.800018,0.299072,413406.593407,125113113.553114,81405641.025641,75.306419,1,1,1,2,1,75.000000
2025-05-02 21:08:17.533,1.091808690509778,0.5438526931134932,0,1.110332342321069,0.6772863768865381,0.3511323332595325,0,0.6887125411874636,0.649747138924487,0.3400052319034825,0,0.5243284326664165,0.3939021110887253,0.6429065031364785,0,0.5094654926675536,0.1288536715816304,0.04241848215264694,0,0.1631147352579634,808.2783882783883,786.1172161172161,842.1245421245421,855.8241758241759,734.5421245421246,-0.029907,0.000671,1.001648,-0.000000,-2.429962,-0.792542,414212.454212,125043003.663004,81427399.267399,75.306419,1,1,1,2,1,75.000000
2025-05-02 21:08:17.648,,,,,,,,,,,,,,,,,,,,,,,,,,,,,,,,,,,,,,,,,,/muse/elements/blink
2025-05-02 21:08:18.527,0.8474526681955488,0.8249803004556613,0,1.144521042710373,0.7075319255618407,0.3480336397983464,0,0.8834567845335251,0.5744669263507782,0.7356798282250248,0,0.8078348903745286,0.3721966341316232,0.6987163247809263,0,0.5791992573998195,0.07502161742565722,0.0433872825016105,0,0.1226380511305897,749.8534798534798,757.1062271062272,453.2967032967033,758.7179487179487,737.7655677655678,0.011597,-0.007751,1.009033,0.224304,0.575714,-0.171967,415018.315018,124897142.857143,81583736.263736,75.614677,1,1,1,2,1,75.000000
2025-05-02 21:08:19.101,,,,,,,,,,,,,,,,,,,,,,,,,,,,,,,,,,,,,,,,,,/muse/elements/blink
2025-05-02 21:08:19.527,1.288939351633698,0.8253845344436525,0,1.474933762227469,1.137165765352395,0.4760432903215069,0,1.098965668274511,0.7359512497437344,0.7083732291866012,0,0.9521239353422125,0.4658280984814898,0.601999901481301,0,0.6689139197653458,0.01577881653986275,-0.00888992126685266,0,0.1190548696904883,752.6739926739926,779.2673992673992,592.3076923076924,690.2197802197802,632.1978021978022,-0.019653,-0.002136,1.002380,0.478516,0.568237,1.831818,417435.897436,124990622.710623,81518461.538462,75.904861,1,1,1,2,1,75.000000
2025-05-02 21:08:20.319,,,,,,,,,,,,,,,,,,,,,,,,,,,,,,,,,,,,,,,,,,/muse/elements/blink
2025-05-02 21:08:20.527,1.411395493295262,0.6582903625221909,0,1.432041919781317,0.9084878133821617,0.4743270595658931,0,0.7899768418148052,0.6930271933509021,0.4648379316223868,0,0.711043991174122,0.366270974852237,0.5382094523642728,0,0.6071599218818345,0.005499030390056951,-0.1135866824119382,0,0.1315891679795706,770,778.8644688644689,847.3626373626374,850.5860805860806,798.2051282051282,0.013550,0.005005,1.011108,-0.157013,-3.424377,-1.188812,415824.175824,125001904.761905,81608717.948718,74.616653,1,1,1,2,1,75.000000
2025-05-02 21:08:21.526,1.652488748800653,0.780992017464145,0,1.579832458450892,1.057838675776472,0.6994177705515975,0,0.8829263258411405,0.6530491314265757,0.5951309461702451,0,0.544836850190873,0.3189553625552003,0.6061451364098474,0,0.5225144922095641,-0.003613161683190689,0.2527747968683792,0,0.172887660369705,738.5714285714286,798.6080586080586,473.0402930402931,736.959706959707,599.9633699633699,0.006958,-0.001343,1.013977,0.538330,-2.415009,0.583191,414212.454212,125159853.479853,81266227.106227,72.984795,1,1,1,2,1,75.000000
2025-05-02 21:08:21.633,,,,,,,,,,,,,,,,,,,,,,,,,,,,,,,,,,,,,,,,,,/muse/elements/blink
2025-05-02 21:08:22.527,1.652488748800653,0.6130665574209562,0,1.579832458450892,1.057838675776472,0.7540587546443513,0,0.8829263258411405,0.6530491314265757,0.3119812665493338,0,0.544836850190873,0.3189553625552003,0.5439500202239272,0,0.5225144922095641,-0.003613161683190689,0.261594173827719,0,0.172887660369705,801.8315018315019,785.3113553113553,724.0659340659341,747.8388278388279,535.4945054945055,-0.015991,-0.005737,1.007874,0.463562,-2.519684,0.568237,416630.036630,125100219.780220,81142124.542125,74.082741,1,1,1,2,1,75.000000
2025-05-02 21:08:22.861,,,,,,,,,,,,,,,,,,,,,,,,,,,,,,,,,,,,,,,,,,/muse/elements/blink
2025-05-02 21:08:23.122,,,,,,,,,,,,,,,,,,,,,,,,,,,,,,,,,,,,,,,,,,/muse/elements/blink
2025-05-02 21:08:23.527,1.652488748800653,0.6130665574209562,0,1.579832458450892,1.057838675776472,0.7540587546443513,0,0.8829263258411405,0.6530491314265757,0.3119812665493338,0,0.544836850190873,0.3189553625552003,0.5439500202239272,0,0.5225144922095641,-0.003613161683190689,0.261594173827719,0,0.172887660369705,769.5970695970697,807.0695970695971,580.6227106227107,812.7106227106227,991.6117216117217,0.001953,0.001648,1.005554,0.127106,0.014954,-0.291595,414212.454212,125219487.179487,81359706.959707,74.367645,1,2,1,2,2,75.000000
2025-05-02 21:08:24.081,,,,,,,,,,,,,,,,,,,,,,,,,,,,,,,,,,,,,,,,,,/muse/elements/blink
2025-05-02 21:08:24.526,1.652488748800653,0.6130665574209562,0,1.579832458450892,1.057838675776472,0.7540587546443513,0,0.8829263258411405,0.6530491314265757,0.3119812665493338,0,0.544836850190873,0.3189553625552003,0.5439500202239272,0,0.5225144922095641,-0.003613161683190689,0.261594173827719,0,0.172887660369705,735.3479853479854,782.0879120879121,479.8901098901099,740.989010989011,581.4285714285714,-0.012329,0.002869,1.011108,0.665436,-2.100983,-0.074768,415824.175824,125355677.655678,81366959.706960,74.306702,1,2,1,2,2,75.000000
2025-05-02 21:08:25.379,,,,,,,,,,,,,,,,,,,,,,,,,,,,,,,,,,,,,,,,,,/muse/elements/blink
2025-05-02 21:08:25.526,0.5114373024237522,0.1822887577585085,0,0.656157319773739,0.4034872809111665,0.1156371095887103,0,0.5157894405581258,0.5731326370880486,0.1847050200619546,0,0.4819066136764726,0.2935143498067616,0.5355230737555747,0,0.6293550504681531,-0.1365780028911665,-0.0600145770448632,0,0.005735303127929987,797.8021978021978,787.3260073260074,676.9230769230769,745.0183150183151,651.1355311355312,-0.004517,-0.001404,1.008972,0.157013,-1.248627,-0.605621,416630.036630,125447545.787546,81422564.102564,73.724266,1,1,1,2,1,75.000000
2025-05-02 21:08:25.805,,,,,,,,,,,,,,,,,,,,,,,,,,,,,,,,,,,,,,,,,,/muse/elements/blink
2025-05-02 21:08:26.526,0.5114373024237522,0.5325397982904796,0,0.6106329152396743,0.4034872809111665,0.3638286044423685,0,0.4534845629694577,0.5731326370880486,0.6552122475076455,0,0.454147186735617,0.2935143498067616,0.5752117681248692,0,0.6410134300919094,-0.1365780028911665,0.0006002109677148365,0,-0.02058159048166221,777.2527472527473,779.2673992673992,709.1575091575091,822.7838827838829,815.5311355311355,-0.017334,-0.004089,1.011658,0.852356,0.022430,0.164490,415018.315018,125287985.347985,81335531.135531,72.818260,1,1,1,2,1,75.000000
2025-05-02 21:08:26.701,,,,,,,,,,,,,,,,,,,,,,,,,,,,,,,,,,,,,,,,,,/muse/elements/blink
2025-05-02 21:08:26.936,,,,,,,,,,,,,,,,,,,,,,,,,,,,,,,,,,,,,,,,,,/muse/elements/blink
2025-05-02 21:08:27.526,0.5114373024237522,0.5791186897782205,0,0.5867712034192925,0.4034872809111665,0.3917811082672797,0,0.3774982886841567,0.5731326370880486,0.6953448923605007,0,0.4228473608942122,0.2935143498067616,0.444180604394464,0,0.6542423900751525,-0.1365780028911665,-0.09427687225988296,0,-0.02857632746658173,739.3772893772893,772.014652014652,428.3150183150183,736.1538461538462,629.3772893772893,-0.020813,-0.011169,1.008240,0.852356,-0.000000,-0.104675,415018.315018,125209816.849817,81230769.230769,71.426468,1,1,1,2,1,75.000000
2025-05-02 21:08:27.919,,,,,,,,,,,,,,,,,,,,,,,,,,,,,,,,,,,,,,,,,,/muse/elements/blink
2025-05-02 21:08:28.528,0.8039940921444262,0.4544000992487866,0,0.5867712034192925,0.5344106299421042,0.2594369539801813,0,0.3774982886841567,0.8463524287467574,0.5793702934408106,0,0.4228473608942122,0.4986567494227987,0.3927613971273987,0,0.6542423900751525,-0.03571742402830812,-0.1526608619968627,0,-0.02857632746658173,831.6483516483516,775.6410256410256,720.8424908424909,773.6263736263736,703.919413919414,-0.014282,-0.006531,1.004150,0.314026,-1.091614,0.321503,418241.758242,125184835.164835,81334725.274725,70.042160,1,1,1,2,1,75.000000
2025-05-02 21:08:28.625,,,,,,,,,,,,,,,,,,,,,,,,,,,,,,,,,,,,,,,,,,/muse/elements/blink
2025-05-02 21:08:29.223,,,,,,,,,,,,,,,,,,,,,,,,,,,,,,,,,,,,,,,,,,/muse/elements/blink
2025-05-02 21:08:29.526,0.8039940921444262,1.024980735157712,0,0.5867712034192925,0.5344106299421042,0.8933428612355031,0,0.3774982886841567,0.8463524287467574,0.8536107142593199,0,0.4228473608942122,0.4986567494227987,0.5435814642357299,0,0.6542423900751525,-0.03571742402830812,-0.2708089221005527,0,-0.02857632746658173,779.6703296703297,787.3260073260074,661.2087912087912,823.5897435897436,758.7179487179487,-0.018066,-0.009949,1.010071,0.171967,-0.725250,-0.471039,414212.454212,125187252.747253,81300879.120879,69.191917,1,1,1,2,1,75.000000
