TimeStamp,Delta_TP9,Delta_AF7,Delta_AF8,Delta_TP10,Theta_TP9,Theta_AF7,Theta_AF8,Theta_TP10,Alpha_TP9,Alpha_AF7,Alpha_AF8,Alpha_TP10,Beta_TP9,Beta_AF7,Beta_AF8,Beta_TP10,Gamma_TP9,Gamma_AF7,Gamma_AF8,Gamma_TP10,RAW_TP9,RAW_AF7,RAW_AF8,RAW_TP10,AUX_RIGHT,Accelerometer_X,Accelerometer_Y,Accelerometer_Z,Gyro_X,Gyro_Y,Gyro_Z,PPG_Ambient,PPG_IR,PPG_Red,Heart_Rate,HeadBandOn,HSI_TP9,HSI_AF7,HSI_AF8,HSI_TP10,Battery,Elements
2025-05-02 21:16:32.102,,,,,,,,,,,,,,,,,,,,,,,,,,,,,,,,,,,,,,,,,,/muse/event/connected Muse-1C98
2025-05-02 21:16:32.145,,,,,,,,,,,,,,,,,,,,,,,,,,,,,,,,,,,,,,,,,,/muse/elements/blink
2025-05-02 21:16:32.148,,,,,,,,,,,,,,,,,,,,,,,,,,,,,,,,,,,,,,,,,,/muse/elements/blink
2025-05-02 21:16:32.582,,,,,,,,,,,,,,,,,,,,,,,,,,,,,,,,,,,,,,,,,,/muse/elements/blink
2025-05-02 21:16:33.102,1.873618796836642,0.370191869339264,0,1.47790790037747,1.417438330834901,0.5160035099624074,0,1.453629234318625,1.382792397969978,0.4767831157900892,0,1.280246489773369,0.9082722063203519,0.4299288707493838,0,0.8982476981548457,0.019856587953016,0.01395632476245585,0,0.3193959310977658,794.1758241758242,809.0842490842491,715.6043956043957,770,744.6153846153846,0.026978,-0.004028,1.009277,2.093506,-3.790741,-2.041168,429523.809524,121787326.007326,80937435.897436,72.159767,1,2,1,2,2,70.000000
2025-05-02 21:16:33.884,,,,,,,,,,,,,,,,,,,,,,,,,,,,,,,,,,,,,,,,,,/muse/elements/blink
2025-05-02 21:16:34.106,1.873618796836642,0.4292019973760937,0,1.47790790037747,1.417438330834901,0.7618121914545597,0,1.453629234318625,1.382792397969978,0.1509528125236411,0,1.280246489773369,0.9082722063203519,0.1616620142435426,0,0.8982476981548457,0.019856587953016,0.1256585060255042,0,0.3193959310977658,791.7582417582418,788.9377289377289,879.5970695970697,795.7875457875458,657.1794871794872,0.030212,-0.008057,1.005798,0.575714,-2.377625,0.829926,427912.087912,122071794.871795,81298461.538462,78.092484,1,2,1,2,2,70.000000
2025-05-02 21:16:35.103,1.873618796836642,0.3641048216081033,0,1.47790790037747,1.417438330834901,0.6106724645780949,0,1.453629234318625,1.382792397969978,0.3616975900048001,0,1.280246489773369,0.9082722063203519,0.4212915779594439,0,0.8982476981548457,0.019856587953016,0.1113591464180479,0,0.3193959310977658,833.6630036630037,807.8754578754579,827.6190476190476,810.2930402930403,730.5128205128206,0.026184,-0.008057,1.007874,1.166382,-2.287903,0.919647,431135.531136,122130622.710623,81324249.084249,81.197815,1,2,1,2,2,70.000000
2025-05-02 21:16:36.102,1.38570453481745,0.6374506464801869,0,1.47790790037747,0.5812363614547463,0.4079770239857404,0,1.453629234318625,0.9189369461888793,0.4090090595725005,0,1.280246489773369,0.641704380924229,0.6148444550055413,0,0.8982476981548457,0.08005933142595933,0.002433637945485015,0,0.3193959310977658,811.0989010989011,801.4285714285714,760.7326007326008,855.0183150183151,781.6849816849817,0.033020,-0.019165,1.003967,0.097198,-1.069183,-1.540222,438388.278388,121805054.945055,80981758.241758,84.308876,1,1,1,2,1,70.000000
2025-05-02 21:16:36.619,,,,,,,,,,,,,,,,,,,,,,,,,,,,,,,,,,,,,,,,,,/muse/elements/blink
2025-05-02 21:16:37.102,1.542571532392269,0.7947542720057587,0,1.47790790037747,0.3023671929361283,0.4935343420319441,0,1.453629234318625,0.7844019816418327,0.3329603355584995,0,1.280246489773369,0.6319319517818044,0.6067496769611881,0,0.8982476981548457,0.06944340988671924,-0.07889866681236445,0,0.3193959310977658,778.4615384615385,788.1318681318681,914.2490842490843,786.9230769230769,597.5457875457876,0.035278,-0.024475,1.006287,1.540222,-3.357086,-7.723541,437582.417582,121532673.992674,80790769.230769,86.940323,1,1,1,2,1,70.000000
2025-05-02 21:16:38.067,,,,,,,,,,,,,,,,,,,,,,,,,,,,,,,,,,,,,,,,,,/muse/elements/blink
2025-05-02 21:16:38.102,1.542571532392269,0.7947542720057587,0,1.47790790037747,0.3023671929361283,0.4935343420319441,0,1.453629234318625,0.7844019816418327,0.3329603355584995,0,1.280246489773369,0.6319319517818044,0.6067496769611881,0,0.8982476981548457,0.06944340988671924,-0.07889866681236445,0,0.3193959310977658,746.6300366300367,783.6996336996338,672.4908424908425,665.6410256410256,825.2014652014652,0.081848,-0.022278,1.002502,0.605621,-4.351501,2.086029,443223.443223,121207106.227106,80918095.238095,86.901207,1,1,1,2,1,70.000000
2025-05-02 21:16:39.102,1.542571532392269,0.7947542720057587,0,1.47790790037747,0.3023671929361283,0.4935343420319441,0,1.453629234318625,0.7844019816418327,0.3329603355584995,0,1.280246489773369,0.6319319517818044,0.6067496769611881,0,0.8982476981548457,0.06944340988671924,-0.07889866681236445,0,0.3193959310977658,865.8974358974359,802.2344322344322,895.3113553113553,985.9706959706961,901.7582417582418,0.126892,-0.014587,1.014160,-0.792542,-6.714172,-0.530853,475457.875458,121278021.978022,81573260.073260,78.453056,1,2,1,2,2,70.000000
2025-05-02 21:16:39.131,,,,,,,,,,,,,,,,,,,,,,,,,,,,,,,,,,,,,,,,,,/muse/elements/blink
2025-05-02 21:16:40.103,1.607397640751055,0.8343844347883008,0,1.406133272229855,0.4660748174398741,0.6119916268930464,0,0.8825500534065861,0.9358684934299446,0.4323964572115233,0,0.6869118145458987,0.8154187692059324,0.3855058930851156,0,0.8438828741084636,0.2139341399939033,0.05154994039496289,0,0.3817716527017654,828.8278388278388,794.1758241758242,986.3736263736264,859.4505494505495,781.6849816849817,0.075623,-0.062073,1.002319,-1.592560,-0.418701,-9.974060,497216.117216,121608424.908425,81317802.197802,74.495224,1,1,1,2,1,70.000000
2025-05-02 21:16:40.498,,,,,,,,,,,,,,,,,,,,,,,,,,,,,,,,,,,,,,,,,,/muse/elements/blink
2025-05-02 21:16:41.102,0.8024650887208338,0.7997276539273569,0,1.335019795208076,0.6086929002676641,0.548390924470968,0,0.9872390595100138,1.182258542294861,0.6434493956786671,0,0.9470283340372564,0.7679966596161452,0.3660101822047025,0,0.8765915914935389,0.2431363174550643,-0.03748333124639249,0,0.3779412305873946,776.0439560439561,798.6080586080586,523.8095238095239,684.981684981685,1233.369963369963,0.141785,-0.032349,1.001831,0.007477,-0.889740,1.435547,544761.904762,121514945.054945,81493479.853480,72.917007,1,1,1,2,1,70.000000
2025-05-02 21:16:41.913,,,,,,,,,,,,,,,,,,,,,,,,,,,,,,,,,,,,,,,,,,/muse/elements/blink
2025-05-02 21:16:42.102,0.8811706225700947,0.8906887532792861,0,1.145577319332822,0.8318280294465108,0.1082203151413351,0,0.8621143348886805,0.9545775936133131,0.4790789965802684,0,0.8775676708464941,0.5747149579916107,0.4016332326719899,0,0.8461146485986474,0.1173163123811766,-0.08705493906640564,0,0.261689172730063,797.3992673992674,815.934065934066,826.4102564102565,810.2930402930403,678.1318681318681,0.073547,-0.025452,0.995056,2.624359,7.790833,21.757507,476263.736264,121365860.805861,81649010.989011,72.179420,1,1,1,2,1,70.000000
2025-05-02 21:16:42.428,,,,,,,,,,,,,,,,,,,,,,,,,,,,,,,,,,,,,,,,,,/muse/elements/blink
2025-05-02 21:16:42.800,,,,,,,,,,,,,,,,,,,,,,,,,,,,,,,,,,,,,,,,,,/muse/elements/blink
2025-05-02 21:16:43.110,1.166629705281602,0.8906887532792861,0,1.070286195031519,0.8921787524444913,0.1082203151413351,0,0.7481088171863148,0.8774072144111396,0.4790789965802684,0,0.826335288401765,0.4679668525093459,0.4016332326719899,0,0.8246849788534281,0.05813073148369659,-0.08705493906640564,0,0.2848685245880342,792.967032967033,795.7875457875458,917.0695970695971,809.0842490842491,651.1355311355312,0.026917,-0.004822,0.994324,-2.833710,6.542206,-1.682281,435164.835165,121788131.868132,81554725.274725,72.515900,1,1,1,2,1,70.000000
2025-05-02 21:16:43.422,,,,,,,,,,,,,,,,,,,,,,,,,,,,,,,,,,,,,,,,,,/muse/elements/blink
2025-05-02 21:16:44.102,1.166629705281602,0.8906887532792861,0,1.070286195031519,0.8921787524444913,0.1082203151413351,0,0.7481088171863148,0.8774072144111396,0.4790789965802684,0,0.826335288401765,0.4679668525093459,0.4016332326719899,0,0.8246849788534281,0.05813073148369659,-0.08705493906640564,0,0.2848685245880342,804.2490842490843,787.3260073260074,674.5054945054945,749.047619047619,929.5604395604396,0.044495,-0.007874,1.008240,-1.271057,-2.355194,0.545807,429523.809524,121941245.421245,81999560.439560,72.221153,1,1,1,2,1,70.000000
2025-05-02 21:16:44.622,,,,,,,,,,,,,,,,,,,,,,,,,,,,,,,,,,,,,,,,,,/muse/elements/blink
2025-05-02 21:16:45.102,1.166629705281602,0.8906887532792861,0,1.070286195031519,0.8921787524444913,0.1082203151413351,0,0.7481088171863148,0.8774072144111396,0.4790789965802684,0,0.826335288401765,0.4679668525093459,0.4016332326719899,0,0.8246849788534281,0.05813073148369659,-0.08705493906640564,0,0.2848685245880342,795.7875457875458,794.5787545787546,845.3479853479854,846.1538461538462,662.014652014652,0.034058,-0.007080,1.012573,0.478516,-0.209351,0.396271,431135.531136,121512527.472527,81597435.897436,72.991142,1,2,1,2,2,70.000000
2025-05-02 21:16:45.756,,,,,,,,,,,,,,,,,,,,,,,,,,,,,,,,,,,,,,,,,,/muse/elements/blink
2025-05-02 21:16:46.108,1.166629705281602,0.567002259275347,0,1.070286195031519,0.8921787524444913,0.6384667697039491,0,0.7481088171863148,0.8774072144111396,0.5683471614602638,0,0.826335288401765,0.4679668525093459,0.6880511048654911,0,0.8246849788534281,0.05813073148369659,0.1743051344141225,0,0.2848685245880342,765.1648351648352,784.9084249084249,890.0732600732601,778.0586080586081,796.5934065934066,0.038086,-0.003784,1.004639,1.166382,-1.839294,1.435547,431941.391941,121427912.087912,81408864.468864,75.427986,1,2,1,2,2,70.000000
2025-05-02 21:16:47.101,1.166629705281602,1.083014534710673,0,1.070286195031519,0.8921787524444913,0.5149398029462551,0,0.7481088171863148,0.8774072144111396,0.07797292886690861,0,0.826335288401765,0.4679668525093459,0.4449045265232706,0,0.8246849788534281,0.05813073148369659,0.1988378858735804,0,0.2848685245880342,790.1465201465202,780.4761904761905,736.1538461538462,734.5421245421246,876.7765567765568,0.034424,-0.008240,1.007507,0.186920,-1.659851,-0.740204,425494.505495,121540732.600733,81553919.413919,75.504990,1,2,1,2,2,70.000000
2025-05-02 21:16:48.102,0.8830960002703981,0.9373006335721059,0,0.8408086431119738,0.5469251669836234,0.4102720861881281,0,0.8646152535324368,0.7072283987585188,0.7089076092803384,0,0.9992281766522517,0.5588516925614884,0.4083501980596986,0,0.7074547035363311,0.03950103245384838,0.1549019141672895,0,0.3149964884140937,777.6556776556777,769.1941391941392,805.4578754578755,799.0109890109891,757.5091575091575,0.037048,-0.008240,1.004211,0.246735,-0.418701,0.411224,426300.366300,121277216.117216,81570842.490842,77.238060,1,1,1,2,1,70.000000
2025-05-02 21:16:48.503,,,,,,,,,,,,,,,,,,,,,,,,,,,,,,,,,,,,,,,,,,/muse/elements/blink
2025-05-02 21:16:48.802,,,,,,,,,,,,,,,,,,,,,,,,,,,,,,,,,,,,,,,,,,/muse/elements/blink
2025-05-02 21:16:49.101,0.8271126375949154,0.7410285870821292,0,0.6261707647913833,0.3548828029970943,0.4709551449840615,0,0.6893889224098892,0.6266239184688195,0.7736788360667447,0,0.9817787058015858,0.470208382283536,0.3579647631717056,0,0.6647276021023384,0.03639324867558576,0.01741651743600744,0,0.4090512881954743,786.1172161172161,792.5641025641025,873.956043956044,732.9304029304029,800.2197802197802,-0.021484,-0.014587,1.012756,0.373840,0.523376,0.403748,422271.062271,121431135.531136,81288791.208791,81.037575,1,1,1,2,1,70.000000
2025-05-02 21:16:49.504,,,,,,,,,,,,,,,,,,,,,,,,,,,,,,,,,,,,,,,,,,/muse/elements/blink
2025-05-02 21:16:50.112,0.9406276068588005,0.9235759652040308,0,0.6359596643049669,0.4749356109021806,0.6493900989315894,0,0.4888062974554147,0.5525109307153131,0.6414924682363078,0,0.9684386369081875,0.5050192831238951,0.4341188315713758,0,0.7352292056983606,-0.06593084463786984,-0.1025925333145957,0,0.4237262670852588,826.8131868131868,801.8315018315019,916.6666666666667,814.3223443223443,646.7032967032967,-0.022461,-0.015320,1.004028,0.328979,-1.839294,0.134583,418241.758242,121479487.179487,81134065.934066,82.061569,1,1,1,2,1,70.000000
2025-05-02 21:16:50.998,,,,,,,,,,,,,,,,,,,,,,,,,,,,,,,,,,,,,,,,,,/muse/elements/blink
2025-05-02 21:16:51.102,0.9406276068588005,0.613407722945444,0,0.6359596643049669,0.4749356109021806,0.3508368359970531,0,0.4888062974554147,0.5525109307153131,0.4078877309646616,0,0.9684386369081875,0.5050192831238951,0.3931230314212594,0,0.7352292056983606,-0.06593084463786984,-0.2496395081555904,0,0.4237262670852588,796.996336996337,795.7875457875458,946.8864468864469,869.92673992674,630.989010989011,-0.026001,-0.011719,1.006897,0.403748,-1.241150,0.104675,421465.201465,121499633.699634,81093772.893773,78.908211,1,2,1,2,2,70.000000
2025-05-02 21:16:52.102,0.9406276068588005,0.5644553213953238,0,0.6359596643049669,0.4749356109021806,0.4750327268193381,0,0.4888062974554147,0.5525109307153131,0.6128666085266197,0,0.9684386369081875,0.5050192831238951,0.3582798285836056,0,0.7352292056983606,-0.06593084463786984,-0.2953760450211363,0,0.4237262670852588,817.948717948718,788.9377289377289,925.5311355311355,784.1025641025641,603.992673992674,-0.013550,-0.010071,1.010742,0.314026,-1.345825,-0.635529,420659.340659,121604395.604396,81032527.472527,72.834549,1,2,1,2,2,70.000000
2025-05-02 21:16:53.104,1.707079443830791,0.5989825558474354,0,1.190807563436259,1.608203172062862,0.219792471699832,0,1.239895469304286,0.9018169021954211,0.565364551213749,0,1.137232883252651,0.7551859189990452,0.3585003299592605,0,0.8168822976715355,0.009607369378920774,-0.0618273686661937,0,0.3339100955098578,783.6996336996338,776.8498168498169,574.5787545787546,761.5384615384615,1093.553113553114,-0.009155,-0.000122,1.012573,1.218719,-1.914062,1.091614,414212.454212,121748644.688645,81210622.710623,69.383232,1,1,1,2,1,70.000000
2025-05-02 21:16:54.108,1.270872096324058,0.5684597952100831,0,1.231817210904979,0.8415635592723476,0.05238974496511881,0,1.074280621177859,0.8061266263993578,0.3816973385486612,0,1.085631894587222,0.3515066006419503,0.3457001802044403,0,0.7604855165609987,-0.006777425120088685,-0.06588434863487988,0,0.1800035587565312,810.6959706959707,783.2967032967033,849.7802197802198,828.021978021978,603.1868131868132,-0.006653,-0.003906,1.001709,0.583191,-2.145844,-0.628052,418241.758242,121863076.923077,81302490.842491,67.102425,1,1,1,2,1,70.000000
2025-05-02 21:16:54.889,,,,,,,,,,,,,,,,,,,,,,,,,,,,,,,,,,,,,,,,,,/muse/elements/blink
2025-05-02 21:16:55.101,1.063731975182935,0.5437394555577727,0,0.9714495972536413,0.9485626153515891,0.3543073910546631,0,0.9419750643200584,0.8769550561623086,0.741750715977282,0,0.9864700652433642,0.3806753818693623,0.4022796373572307,0,0.7697635311249627,-0.1091481244684818,-0.1407816745446527,0,0.1586779208480906,812.7106227106227,782.4908424908425,884.0293040293041,865.4945054945056,911.4285714285714,-0.002869,-0.004456,1.008484,0.343933,-2.093506,-0.216827,420659.340659,121592307.692308,81188864.468864,67.506569,1,1,1,2,1,70.000000
2025-05-02 21:16:56.103,0.6828894164164766,0.9139048155030284,0,0.8659252017506783,1.013235254662293,0.8448219327953582,0,0.8948770300740024,0.7776663620644928,0.9768120408562693,0,0.9846964568148421,0.3890201123247462,0.4060618518937857,0,0.7777801180124277,-0.2472478030035589,-0.05869378781622171,0,0.2050328221954258,792.5641025641025,804.2490842490843,811.9047619047619,740.5860805860806,585.0549450549451,-0.000488,-0.013428,1.002686,0.104675,-0.822449,-0.650482,416630.036630,121514945.054945,81147765.567766,69.252640,1,1,1,2,1,70.000000
2025-05-02 21:16:57.102,1.121999865454863,0.574286799237482,0,0.8659252017506783,0.8994865973305763,0.3174984256329784,0,0.8948770300740024,1.188855986472583,0.5804988628499778,0,0.9846964568148421,0.5379130568753568,0.3742250987893906,0,0.7777801180124277,-0.1682886977158899,-0.03860025111038459,0,0.2050328221954258,814.7252747252747,810.6959706959707,875.5677655677656,826.4102564102565,680.1465201465202,-0.003845,-0.006287,1.003967,0.545807,-1.674805,0.560760,420659.340659,121502051.282051,81118754.578755,69.341644,1,1,1,2,1,70.000000
2025-05-02 21:16:57.854,,,,,,,,,,,,,,,,,,,,,,,,,,,,,,,,,,,,,,,,,,/muse/elements/blink
2025-05-02 21:16:58.102,1.416017547913275,0.6294954501103303,0,0.8659252017506783,0.9912415173387147,0.4570399976594726,0,0.8948770300740024,1.183051819974216,0.6107252721940364,0,0.9846964568148421,0.622461765676716,0.2664625386043939,0,0.7777801180124277,-0.05520939463867017,-0.1195682998124057,0,0.2050328221954258,680.1465201465202,832.4542124542124,748.2417582417582,639.4505494505495,892.0879120879121,0.003723,-0.000488,1.008789,0.829926,-2.968292,-0.059814,423076.923077,121534285.714286,81016410.256410,68.673141,1,1,1,2,1,70.000000
2025-05-02 21:16:58.345,,,,,,,,,,,,,,,,,,,,,,,,,,,,,,,,,,,,,,,,,,/muse/elements/blink
2025-05-02 21:16:59.102,1.416017547913275,0.8350791638814522,0,0.8659252017506783,0.9912415173387147,0.4338677636177731,0,0.8948770300740024,1.183051819974216,0.6072866331100699,0,0.9846964568148421,0.622461765676716,0.2036896524802731,0,0.7777801180124277,-0.05520939463867017,-0.1077906581117319,0,0.2050328221954258,804.6520146520147,792.5641025641025,654.7619047619048,789.7435897435897,871.941391941392,0.017822,-0.007690,1.008179,0.867310,-1.757050,0.246735,418241.758242,121570549.450549,81071208.791209,67.242889,1,1,1,2,1,70.000000
2025-05-02 21:16:59.861,,,,,,,,,,,,,,,,,,,,,,,,,,,,,,,,,,,,,,,,,,/muse/elements/blink
2025-05-02 21:17:00.103,1.416017547913275,0.6162427617057912,0,0.8659252017506783,0.9912415173387147,0.05615914468055833,0,0.8948770300740024,1.183051819974216,0.4257583212614943,0,0.9846964568148421,0.622461765676716,0.4464641086877198,0,0.7777801180124277,-0.05520939463867017,-0.01587762212948084,0,0.2050328221954258,797.3992673992674,788.5347985347986,856.2271062271062,834.8717948717949,701.9047619047619,0.013489,-0.002869,1.008911,0.523376,-1.689758,0.127106,419853.479853,121577802.197802,81071208.791209,65.543228,1,2,1,2,2,70.000000
2025-05-02 21:17:00.608,,,,,,,,,,,,,,,,,,,,,,,,,,,,,,,,,,,,,,,,,,/muse/elements/blink
2025-05-02 21:17:01.102,1.494558433869963,0.800545571497685,0,0.8659252017506783,1.109029251979141,0.384222364988105,0,0.8948770300740024,1.222375150977634,0.5692473669453492,0,0.9846964568148421,0.8642093963075395,0.3771974071047872,0,0.7777801180124277,-0.02595766497281655,0.1409138702846287,0,0.2050328221954258,770,795.7875457875458,868.7179487179487,819.96336996337,689.8168498168499,0.030518,0.002747,1.010986,0.388794,-1.502838,-0.433655,424688.644689,121589084.249084,81113919.413919,65.421753,1,1,1,2,1,70.000000
2025-05-02 21:17:02.102,0.5412687475964983,0.8222851412981621,0,0.8659252017506783,0.7056494590732664,0.4538955302504543,0,0.8948770300740024,0.2117929993933373,0.5014094983293594,0,0.9846964568148421,0.511404911183417,0.396990927023773,0,0.7777801180124277,-0.2544049400414894,0.01422842214544458,0,0.2050328221954258,792.1611721611722,787.3260073260074,650.7326007326008,778.0586080586081,980.3296703296703,0.029419,-0.002258,1.011169,0.822449,-1.405640,0.358887,419047.619048,121682564.102564,81254139.194139,65.521034,1,1,1,2,1,70.000000
2025-05-02 21:17:03.102,0.8268622725303983,0.2812915206558865,0,0.8659252017506783,0.5528873897879729,0.1165027976619099,0,0.8948770300740024,0.5883620916551819,0.4028223455566742,0,0.9846964568148421,0.4296547837246861,0.3659853651223143,0,0.7777801180124277,-0.06359892588606941,-0.1363127495186484,0,0.2050328221954258,788.1318681318681,785.7142857142858,917.8754578754579,819.5604395604396,604.3956043956044,0.024353,0.003479,1.012024,0.643005,-1.039276,0.530853,421465.201465,121660000.000000,81262197.802198,65.073608,1,1,1,2,1,70.000000
2025-05-02 21:17:03.845,,,,,,,,,,,,,,,,,,,,,,,,,,,,,,,,,,,,,,,,,,/muse/elements/blink
2025-05-02 21:17:04.102,1.172683100255101,0.8096982462044483,0,1.183371272007199,0.9248657068001629,0.5551873790458026,0,0.7357224303813477,1.128845632194646,0.6779633277150078,0,1.040522724581506,0.4205334117607639,0.276236393685163,0,0.6886387534932582,-0.02272931587941215,0.08530843993828521,0,0.1496847877989048,770.8058608058608,787.3260073260074,839.3040293040293,842.9304029304029,747.8388278388279,0.028442,0.003052,1.010437,0.994415,-1.824341,0.037384,424688.644689,121655970.695971,81242857.142857,66.258133,1,1,1,2,1,70.000000
2025-05-02 21:17:05.102,1.331225971059791,0.9352863022543768,0,0.8652501743681705,1.280425794027438,0.7092696850189431,0,0.8059732091525774,1.126755163587174,0.6983325947805333,0,0.9379158854652636,0.4820274954800325,0.5208924082760877,0,0.6367542465840172,-0.1425572186160884,0.2151150331667242,0,0.09915285395881232,811.0989010989011,802.2344322344322,676.1172161172161,807.0695970695971,740.1831501831502,0.033081,-0.000122,1.008789,0.665436,-0.934601,-0.186920,419047.619048,121644688.644689,81303296.703297,65.966431,1,1,1,2,1,70.000000
2025-05-02 21:17:05.851,,,,,,,,,,,,,,,,,,,,,,,,,,,,,,,,,,,,,,,,,,/muse/elements/blink
2025-05-02 21:17:06.102,0.8400863369215646,0.5810660650002671,0,0.8652501743681705,0.6484798964655923,0.1026094905511804,0,0.8059732091525774,0.7737336862977245,0.1484314542885131,0,0.9379158854652636,0.4401802455203522,0.4312917192065394,0,0.6367542465840172,0.01402462939498479,-0.08823582165362751,0,0.09915285395881232,668.8644688644689,852.1978021978023,915.0549450549451,747.8388278388279,520.1831501831502,0.023926,0.002441,1.007141,0.209351,-0.762634,-0.231781,420659.340659,121638241.758242,81358095.238095,65.162910,1,1,1,2,1,70.000000
2025-05-02 21:17:06.279,,,,,,,,,,,,,,,,,,,,,,,,,,,,,,,,,,,,,,,,,,/muse/elements/blink
2025-05-02 21:17:07.104,0.8663693793008203,0.8685926078102603,0,0.8652501743681705,0.6959122233433639,0.1499301838367563,0,0.8059732091525774,0.7530441873083116,0.02644505400700183,0,0.9379158854652636,0.3657135899881425,-0.08288742346217019,0,0.6367542465840172,-0.1950639000376884,-0.06504506801342458,0,0.09915285395881232,775.2380952380953,783.6996336996338,795.3846153846154,826.4102564102565,892.4908424908425,0.029175,0.001160,1.004761,0.471039,-1.390686,0.343933,422271.062271,121601172.161172,81346813.186813,66.249069,1,1,1,2,1,65.000000
2025-05-02 21:17:08.102,0.9534102605971809,0.8264205517446133,0,0.8652501743681705,0.8259379135231534,0.4541960858595392,0,0.8059732091525774,0.8307670052344812,0.7056955573466447,0,0.9379158854652636,0.5196909774319177,0.352613922000217,0,0.6367542465840172,0.2661331552003797,-0.006106795815078041,0,0.09915285395881232,786.9230769230769,791.3553113553114,655.9706959706959,789.7435897435897,798.6080586080586,0.028992,0.007202,1.005188,0.650482,-1.876678,0.463562,419047.619048,121626153.846154,81387106.227106,66.848495,1,1,1,2,1,65.000000
2025-05-02 21:17:09.108,0.9345222002971941,0.6294212215340119,0,0.9758178692597028,0.6513362804178046,0.1793000328333468,0,0.9695221373439352,0.92616200766597,0.6951453508386982,0,0.5784484856650675,0.5670250586173532,0.4227127026590831,0,0.7070981353862152,0.06367863055821615,-0.1356298570574303,0,0.4049406801738435,806.2637362637363,810.6959706959707,976.3003663003664,834.4688644688645,605.6043956043957,0.027283,0.006897,1.006470,0.605621,-1.001892,0.044861,419047.619048,121401318.681319,81254945.054945,66.816551,1,1,1,2,1,65.000000
2025-05-02 21:17:10.101,0.9446171299016256,0.5885273555636658,0,0.8728106353145511,0.5752520975750011,0.2456402534258,0,0.9749221650711992,0.7689803661080943,0.6023279399544585,0,0.9128224115981273,0.5071787157262034,0.3465302581235823,0,0.6056847628613234,0.08488433521156245,-0.1221170012920108,0,0.2182562640884868,808.6813186813187,783.2967032967033,780.0732600732601,856.6300366300367,853.8095238095239,0.027771,0.003296,1.009033,0.583191,-1.069183,0.052338,422271.062271,121285274.725275,81113113.553114,68.090057,1,1,1,2,1,65.000000
2025-05-02 21:17:10.209,,,,,,,,,,,,,,,,,,,,,,,,,,,,,,,,,,,,,,,,,,/muse/elements/blink
2025-05-02 21:17:10.633,,,,,,,,,,,,,,,,,,,,,,,,,,,,,,,,,,,,,,,,,,/muse/elements/blink
2025-05-02 21:17:11.101,1.019598822689139,0.8040514174364721,0,1.044121240448887,0.6802386672258017,0.7690449392475647,0,0.5864369461471087,0.5122682621991116,0.6749476755349466,0,0.745432719463321,0.5060461198623541,0.3229417363720075,0,0.6400389501980682,-0.06374544348948172,-0.1507647259977249,0,0.3385628755978978,823.1868131868132,800.2197802197802,940.0366300366301,797.8021978021978,647.9120879120879,0.017395,0.004211,1.013123,0.545807,-0.448608,-0.014954,437582.417582,121287692.307692,81191282.051282,68.725548,1,1,1,2,1,65.000000
2025-05-02 21:17:12.102,0.80863819438969,0.6322685945596908,0,1.044121240448887,0.688310060118359,0.4685610946838297,0,0.5864369461471087,0.9154778396353059,0.4260878471612692,0,0.745432719463321,0.3414049334714375,0.3590225573256086,0,0.6400389501980682,-0.04047554400546033,0.004266447236965102,0,0.3385628755978978,807.0695970695971,801.8315018315019,967.4358974358975,749.8534798534798,578.6080586080586,0.018372,0.005249,1.011292,1.143951,-1.166382,-0.201874,419047.619048,121398901.098901,81264615.384615,67.464279,1,1,1,2,1,65.000000
2025-05-02 21:17:13.101,1.019979352976061,0.7315757722128398,0,1.067965601257745,0.7784160649612242,0.7825223164283613,0,0.9725917285707142,1.032621288010233,0.8660232345285277,0,1.192704147210281,0.4462029579944436,0.3120303318379341,0,0.7097709264183019,0.007934553044741732,-0.04426007015198723,0,0.1383173151371721,788.5347985347986,795.3846153846154,841.3186813186813,835.2747252747253,669.6703296703297,0.028687,0.004272,1.009521,0.545807,-1.801910,-0.104675,420659.340659,121397289.377289,81220293.040293,67.492668,1,1,1,2,1,65.000000
2025-05-02 21:17:14.101,1.12663110936606,0.8196972425218014,0,1.329365087266607,0.836976230221871,0.8991719706072584,0,1.015495945491633,0.854898772021163,0.8799785453514842,0,1.209558749606166,0.4779731573944702,0.374737761861647,0,0.7029460611985342,0.07014297487414838,-0.1634375599033964,0,0.166616332539765,779.6703296703297,792.967032967033,751.4652014652015,780.0732600732601,825.6043956043957,0.017639,0.007385,1.010925,0.957031,-0.680389,0.246735,417435.897436,121431135.531136,81279120.879121,67.746391,1,1,1,2,1,65.000000
2025-05-02 21:17:15.102,1.139044327214255,0.908023854177778,0,1.148353980833784,1.061774071434918,0.8043029251716582,0,0.8918227513045121,0.9096914410219603,0.7472909057924335,0,1.125162802117665,0.4742173370597049,0.4102396663795497,0,0.7873600352052363,0.03272932945786473,-0.08146004176059193,0,0.2357812080273484,803.4432234432235,796.996336996337,926.7399267399268,823.992673992674,680.952380952381,0.014709,0.002747,1.002930,0.927124,-3.297272,-0.029907,416630.036630,121315091.575092,81206593.406593,67.905586,1,1,1,2,1,65.000000
2025-05-02 21:17:15.848,,,,,,,,,,,,,,,,,,,,,,,,,,,,,,,,,,,,,,,,,,/muse/elements/blink
2025-05-02 21:17:16.102,0.9242157619344249,0.967768509455092,0,1.049235985543055,0.9578325659396609,0.7697115117141824,0,0.9094589919022373,0.4595323264869756,0.8113375880741964,0,1.039231098272503,0.4731480530480083,0.4774560441409145,0,0.8230129920266702,-0.01232682822128779,-0.07089250107211308,0,0.2311019126782446,796.996336996337,802.6373626373627,833.6630036630037,845.7509157509157,807.4725274725275,0.019836,0.002014,1.004822,0.777588,-1.570129,0.343933,419853.479853,121428717.948718,81231575.091575,68.832932,1,1,1,2,1,65.000000
2025-05-02 21:17:17.102,0.7603741966835653,0.9269446120047761,0,1.22497804174991,0.9757762511142092,0.7886669382635172,0,0.9307845892682609,0.1491904006292405,0.8284098994506115,0,0.6390364025741979,0.4109619499019145,0.3867053696714439,0,0.9091849252896549,-0.02168330594684549,-0.1299867709783294,0,0.2292968213259776,770,777.2527472527473,805.0549450549451,782.4908424908425,669.2673992673992,0.025635,0.002991,1.008240,0.897217,-1.801910,-0.149536,416630.036630,121323956.043956,81200146.520147,68.157600,1,1,1,2,1,65.000000
2025-05-02 21:17:18.101,0.7926854575221818,0.7389566343241732,0,1.389274002560703,0.7358401385473076,0.5858254222022627,0,1.085251023121147,0.7900497031679375,0.6405537307504082,0,1.320340028227636,0.4922384350767952,0.1997652327147249,0,0.7944654382977817,-0.009530513252413315,-0.0962772445824126,0,0.2043640238387617,819.96336996337,794.1758241758242,968.6446886446887,830.8424908424909,535.0915750915751,0.028015,0.000488,1.004517,0.785065,-0.904694,0.777588,418241.758242,121400512.820513,81293626.373626,67.978546,1,1,1,2,1,65.000000
2025-05-02 21:17:19.101,0.8857545631513183,0.7215154117372669,0,1.513829012648708,0.816754637897081,0.474302330663694,0,1.154025997728902,0.8134801588908446,0.6274871042165416,0,1.19042708793384,0.4214233740428286,0.3637369604279447,0,0.7232513425937395,0.08790372830482419,-0.1644244444393747,0,0.2994395611736538,785.7142857142858,793.3699633699634,792.1611721611722,865.8974358974359,816.7399267399268,0.025208,0.006287,1.003174,0.575714,-2.003784,-0.186920,419047.619048,121469816.849817,81404029.304029,68.266006,1,1,1,2,1,65.000000
2025-05-02 21:17:20.101,0.8545010342510533,0.5929071669109579,0,1.104062068991464,0.6790890859197508,0.4132804200479864,0,1.16675520745038,0.9689928841503302,0.7220800703917394,0,1.349059888681142,0.3987221605662463,0.3450231632336223,0,0.8677103447839274,0.001192266467454264,-0.1381310134057597,0,0.418263814059636,782.0879120879121,791.7582417582418,794.1758241758242,786.9230769230769,631.7948717948718,0.029358,0.007629,1.009155,0.014954,-0.829926,-0.680389,418241.758242,121335238.095238,81400000.000000,67.872917,1,1,1,2,1,65.000000
2025-05-02 21:17:20.707,,,,,,,,,,,,,,,,,,,,,,,,,,,,,,,,,,,,,,,,,,/muse/elements/blink
2025-05-02 21:17:21.008,,,,,,,,,,,,,,,,,,,,,,,,,,,,,,,,,,,,,,,,,,/muse/elements/blink
2025-05-02 21:17:21.107,0.6721730912395765,1.083848586748255,0,1.34295032650637,0.5575665921829742,0.8806429365396164,0,1.028576526201621,0.8533446355846499,0.6825383707151832,0,1.304306724809554,0.6195264749213486,0.3233189833110868,0,1.050374271062745,-0.1674814111111816,-0.03571389100509054,0,0.4833191446120091,822.3809523809524,815.934065934066,986.3736263736264,777.6556776556777,626.959706959707,0.020386,0.005432,1.005859,0.680389,-0.418701,0.127106,417435.897436,121149084.249084,81209816.849817,69.407593,1,1,1,2,1,65.000000
2025-05-02 21:17:21.414,,,,,,,,,,,,,,,,,,,,,,,,,,,,,,,,,,,,,,,,,,/muse/elements/blink
2025-05-02 21:17:21.818,,,,,,,,,,,,,,,,,,,,,,,,,,,,,,,,,,,,,,,,,,/muse/elements/blink
2025-05-02 21:17:22.101,0.700153751414353,1.456665113743959,0,1.376216631410369,0.3961418921764886,1.190366344974713,0,0.7671435260768377,0.516748695947024,0.7081856572125892,0,1.154557028503108,0.6352029710151994,0.3571658318135906,0,1.134160081980089,-0.3013808306824712,0.07094791823593909,0,0.5143604115319169,778.4615384615385,794.1758241758242,804.6520146520147,841.3186813186813,855.4212454212454,0.001038,-0.003052,1.008911,0.613098,-1.360779,0.007477,420659.340659,121172454.212454,81268644.688645,70.707954,1,1,1,2,1,65.000000
2025-05-02 21:17:23.105,0.700153751414353,1.198219207939591,0,1.376216631410369,0.3961418921764886,1.124512651595386,0,0.7671435260768377,0.516748695947024,0.9798013995570779,0,1.154557028503108,0.6352029710151994,0.3002746646533259,0,1.134160081980089,-0.3013808306824712,-0.1654246090424462,0,0.5143604115319169,810.2930402930403,787.7289377289378,830.0366300366301,744.2124542124542,660,-0.018616,0.001099,1.006897,0.687866,-1.368256,0.463562,418241.758242,121334432.234432,81304102.564103,69.485985,1,1,1,2,1,65.000000
2025-05-02 21:17:23.946,,,,,,,,,,,,,,,,,,,,,,,,,,,,,,,,,,,,,,,,,,/muse/elements/blink
2025-05-02 21:17:24.107,1.117305053787162,0.8325440883128509,0,1.376216631410369,0.9945456002683146,0.9055401583036662,0,0.7671435260768377,1.044449049974426,0.698885586865938,0,1.154557028503108,0.672379555546597,0.3798546581675679,0,1.134160081980089,0.1231313965197706,-0.2206692345663938,0,0.5143604115319169,821.1721611721612,803.040293040293,897.3260073260074,810.6959706959707,780.8791208791209,-0.029297,-0.001038,1.009827,0.276642,-0.837402,-0.508423,416630.036630,121435970.695971,81321831.501832,67.174644,1,1,1,2,1,65.000000
2025-05-02 21:17:25.101,1.218841853467662,0.9900628857281883,0,1.376216631410369,0.548264296953504,1.014479436229398,0,0.7671435260768377,0.7339825965861727,0.4835458887625183,0,1.154557028503108,0.7102656734897373,0.08504240058233123,0,1.134160081980089,0.2289373349414992,-0.1341311068930557,0,0.5143604115319169,801.4285714285714,792.5641025641025,650.3296703296703,848.1684981684982,1160.43956043956,-0.028687,-0.001953,1.004944,0.097198,-1.405640,-0.605621,416630.036630,121477069.597070,81048644.688645,67.789421,1,1,1,2,1,65.000000
2025-05-02 21:17:26.106,1.141098285237564,0.5291195611288272,0,1.204732670759143,0.7082174033002315,0.5845919786083423,0,1.164539777878951,0.6903175647259834,0.7008364830514922,0,0.7133371805138371,0.397325146088869,0.2848268047219153,0,0.5529559822348942,0.04051810417575134,-0.1955046750446991,0,0.2332588251214169,843.3333333333334,801.8315018315019,817.1428571428571,761.1355311355312,777.6556776556777,-0.016846,-0.002197,1.005005,0.650482,-1.547699,0.762634,419853.479853,121265934.065934,81047032.967033,68.955025,1,1,1,2,1,65.000000
2025-05-02 21:17:27.103,1.213973324978659,0.5921195749377313,0,1.215248613002243,0.7121026568553686,0.7406948587313624,0,1.145624595296409,0.8488838074119003,0.7201506495623983,0,0.9037683923998732,0.5764800194339258,0.3287125428716645,0,0.533229939982747,0.02630644325927451,-0.3578528492560238,0,0.06038490871717442,809.0842490842491,805.0549450549451,990,811.0989010989011,582.6373626373627,-0.025635,-0.000732,1.007812,0.403748,-1.749573,-0.396271,417435.897436,121106373.626374,80997875.457875,69.374588,1,1,1,2,1,65.000000
2025-05-02 21:17:28.100,0.9568718588764598,0.5763830615500163,0,1.303380174178693,0.6360437697353026,0.6193037453413238,0,1.013623203092682,0.9253152448021151,0.7571727501962998,0,1.038916567650732,0.6360316779758038,0.28563396431821,0,0.7604371450496304,0.04978342056926945,-0.2395425301264565,0,0.03410149149784913,807.8754578754579,796.996336996337,813.5164835164835,862.2710622710623,722.8571428571429,-0.018677,-0.001038,1.005005,0.373840,-1.300964,-0.328979,417435.897436,121053992.673993,81175164.835165,68.716515,1,1,1,2,1,65.000000
2025-05-02 21:17:28.818,,,,,,,,,,,,,,,,,,,,,,,,,,,,,,,,,,,,,,,,,,/muse/elements/blink
2025-05-02 21:17:29.107,0.9666175918188697,0.7413588382998283,0,1.334321989000343,0.6566869850685498,0.5782710982104586,0,0.9595527483315652,0.9059983120447608,0.8877289338720645,0,0.936154733066782,0.6057444646000582,0.3243636162558944,0,0.8432882511511214,0.1444027963594544,-0.2345415715274997,0,0.1264369771979802,809.4871794871796,791.7582417582418,844.9450549450549,751.8681318681319,617.6923076923077,-0.020325,0.000122,1.003784,0.568237,-0.157013,0.014954,419853.479853,121109597.069597,81236410.256410,67.332108,1,1,1,2,1,65.000000
2025-05-02 21:17:29.862,,,,,,,,,,,,,,,,,,,,,,,,,,,,,,,,,,,,,,,,,,/muse/elements/blink
2025-05-02 21:17:30.101,1.148086956603115,1.031151260921987,0,1.300378105630556,0.6294296527401432,0.8374499167857358,0,0.8042685772723376,0.8089990271834463,0.8000686338691096,0,0.8681117495409473,0.6494220126415717,0.3958839777008412,0,0.8733554796405552,0.07736232128330979,-0.4662255024633994,0,0.08658059549689424,812.7106227106227,802.6373626373627,996.0439560439561,805.8608058608058,673.6996336996338,-0.026611,0.002258,1.004150,0.358887,-1.001892,0.179443,417435.897436,121266739.926740,81237216.117216,66.123672,1,1,1,2,1,65.000000
2025-05-02 21:17:31.101,1.148086956603115,0.7119768564402331,0,1.300378105630556,0.6294296527401432,0.5078320804983878,0,0.8042685772723376,0.8089990271834463,0.5288964066445011,0,0.8681117495409473,0.6494220126415717,0.4365370929606829,0,0.8733554796405552,0.07736232128330979,-0.2207409629753439,0,0.08658059549689424,787.7289377289378,786.1172161172161,507.2893772893773,855.0183150183151,1320.805860805861,-0.031372,0.007690,1.011963,-0.478516,-1.809387,-1.846771,415018.315018,121387619.047619,81350036.630037,66.193321,1,1,1,2,1,65.000000
2025-05-02 21:17:32.101,0.9468988300095282,0.7411298888764071,0,1.081801690588868,0.6320850046893444,0.4723525748119002,0,0.3641802673925233,0.5150515543375717,0.5511069822575465,0,0.9829020025601939,0.461918012805283,0.4122922713529522,0,0.6506265446271543,-0.1351683773921283,-0.1544598905434999,0,0.07700556194343777,711.5750915750916,832.0512820512821,829.2307692307693,767.5824175824176,595.934065934066,-0.034119,-0.000732,1.003479,0.934601,-2.302856,0.867310,419047.619048,121540732.600733,81224322.344322,67.076149,1,1,1,2,1,65.000000
2025-05-02 21:17:32.295,,,,,,,,,,,,,,,,,,,,,,,,,,,,,,,,,,,,,,,,,,/muse/elements/blink
2025-05-02 21:17:33.101,1.063518232689938,0.9978651281746596,0,1.211264391939109,0.8444683044527864,0.8062127833055059,0,0.2153415508381377,0.3204931149622114,0.6735104088135857,0,0.9049716198699669,0.4809159405263397,0.4423224687465336,0,0.6310370026527695,-0.05209201067907415,-0.04389542686547018,0,-0.04607447571158232,813.5164835164835,796.5934065934066,918.2783882783883,787.7289377289378,714.3956043956044,-0.023132,0.003052,1.007568,0.725250,-2.190704,-0.583191,416630.036630,121203882.783883,81151794.871795,69.213257,1,1,1,2,1,65.000000
2025-05-02 21:17:34.106,1.063518232689938,0.5601892968362212,0,1.043295086028466,0.8444683044527864,0.7047461386464938,0,1.052869175534324,0.3204931149622114,0.6480153627072017,0,0.8935047763405312,0.4809159405263397,0.4283168619212012,0,0.8054921237938579,-0.05209201067907415,-0.06998684494236965,0,0.03076659989526128,811.9047619047619,799.8168498168499,894.1025641025641,859.8534798534798,718.4249084249085,-0.022339,0.002869,1.008545,-0.037384,-1.046753,-0.500946,416630.036630,120801758.241758,81052673.992674,71.667862,1,1,1,2,1,65.000000
2025-05-02 21:17:34.727,,,,,,,,,,,,,,,,,,,,,,,,,,,,,,,,,,,,,,,,,,/muse/elements/blink
2025-05-02 21:17:35.100,0.7681378266264814,0.9119888679487382,0,0.9771192338727964,0.7619412617070153,0.8546537585416256,0,1.059423943816993,0.8560387474689417,0.7987558708065972,0,0.8730601137899202,0.5104806461189496,0.3990476683201235,0,0.6532321056925551,-0.06459175707947408,-0.07302071335523717,0,0.1503772214763123,770.4029304029305,792.1611721611722,811.5018315018315,825.2014652014652,717.2161172161173,-0.019592,-0.000488,1.002991,0.740204,-1.256104,0.112152,420659.340659,120760659.340659,81126813.186813,72.375870,1,1,1,2,1,65.000000
2025-05-02 21:17:35.626,,,,,,,,,,,,,,,,,,,,,,,,,,,,,,,,,,,,,,,,,,/muse/elements/blink
2025-05-02 21:17:36.103,0.7681378266264814,1.277442996054772,0,0.7718426217161102,0.7619412617070153,1.100107858089314,0,0.7812823381621807,0.8560387474689417,0.8243304626872386,0,0.7420892166097374,0.5104806461189496,0.4793790866741894,0,0.6574916477925311,-0.06459175707947408,-0.06739008195630518,0,0.1919225957993127,802.2344322344322,801.025641025641,894.1025641025641,801.025641025641,859.8534798534798,-0.017700,0.004639,1.008057,0.897217,-1.958923,0.291595,418241.758242,120916190.476190,81063150.183150,71.363602,1,1,1,2,1,65.000000
2025-05-02 21:17:36.562,,,,,,,,,,,,,,,,,,,,,,,,,,,,,,,,,,,,,,,,,,/muse/elements/blink
2025-05-02 21:17:37.101,0.7681378266264814,1.398838294803972,0,1.760054803145273,0.7619412617070153,1.010221431027287,0,1.449340752554741,0.8560387474689417,0.9043593581594109,0,1.249083452754003,0.5104806461189496,0.4975866119207749,0,0.7037818365141791,-0.06459175707947408,-0.03290248786783947,0,-0.0261099988941212,800.2197802197802,772.8205128205128,890.0732600732601,863.4798534798535,703.919413919414,-0.023499,0.005676,1.003418,0.717773,-1.816864,0.074768,416630.036630,120949230.769231,81098608.058608,69.411980,1,1,1,2,1,65.000000
2025-05-02 21:17:37.176,,,,,,,,,,,,,,,,,,,,,,,,,,,,,,,,,,,,,,,,,,/muse/elements/blink
2025-05-02 21:17:37.643,,,,,,,,,,,,,,,,,,,,,,,,,,,,,,,,,,,,,,,,,,/muse/elements/blink
2025-05-02 21:17:38.101,0.7681378266264814,1.398838294803972,0,1.543501518316403,0.7619412617070153,1.010221431027287,0,1.187849342513146,0.8560387474689417,0.9043593581594109,0,1.114241673599297,0.5104806461189496,0.4975866119207749,0,0.7705280256307956,-0.06459175707947408,-0.03290248786783947,0,-0.0091998154293704,782.0879120879121,794.1758241758242,838.0952380952381,813.1135531135532,648.3150183150183,-0.023865,0.001099,1.009888,0.485992,-1.936493,0.328979,421465.201465,121037875.457875,81001098.901099,66.904732,1,1,1,2,1,65.000000
2025-05-02 21:17:39.101,0.956336936955577,0.8163909055828439,0,0.5481111227290453,0.3684417939268616,0.5687369364579598,0,0.644103973208594,0.2479529708716279,0.6923617041928098,0,0.5812791700629644,0.3425422866660953,0.5295183831351448,0,0.5275116816147923,0.1008982212748812,-0.1448100055238858,0,0.2501786106478988,821.1721611721612,804.6520146520147,965.0183150183151,781.2820512820513,682.1611721611722,-0.029602,0.003906,1.005310,0.291595,-1.173859,-0.456085,419047.619048,121033040.293040,81032527.472527,64.586601,1,1,1,2,1,65.000000
2025-05-02 21:17:40.101,1.153482034834475,0.9921738334840429,0,1.033066477961367,0.8703922689549457,0.636587589002711,0,1.081949599662474,1.020461979740211,0.8745374876462449,0,1.027676758743846,0.3989044824406216,0.4445331137146925,0,0.5922734660249974,0.04986423387696853,-0.05510844247339428,0,0.1389181378948592,795.7875457875458,808.6813186813187,815.5311355311355,749.4505494505495,821.5750915750916,-0.029968,0.002014,1.001648,0.485992,-1.091614,0.448608,418241.758242,120934725.274725,80926153.846154,63.988064,1,1,1,2,1,65.000000
2025-05-02 21:17:41.105,1.058750363273421,1.009633591429292,0,1.316963416386154,1.053302499457658,0.6990407496515967,0,1.395340021333764,1.17013906955973,0.9834063844665216,0,1.008057843174069,0.5151000787582177,0.441112466264638,0,0.5937174690042918,0.2362794321995982,-0.05528720460345762,0,0.07989044164232297,799.0109890109891,785.3113553113553,825.2014652014652,743.4065934065934,579.8168498168499,-0.020203,0.008179,1.007935,0.493469,0.403748,0.859833,420659.340659,120934725.274725,80196043.956044,64.475761,1,1,1,2,1,65.000000
2025-05-02 21:17:41.627,,,,,,,,,,,,,,,,,,,,,,,,,,,,,,,,,,,,,,,,,,/muse/elements/blink
2025-05-02 21:17:42.100,0.8713575946367837,1.155803411581598,0,1.316963416386154,1.14307333812427,0.9708330399489344,0,1.395340021333764,1.081204291836971,0.915333368574331,0,1.008057843174069,0.5852121721083061,0.5546247909633344,0,0.5937174690042918,0.4747837668156281,0.009377295852443528,0,0.07989044164232297,800.6227106227107,786.1172161172161,903.3699633699634,769.5970695970697,742.1978021978023,-0.026733,0.010254,1.002625,0.127106,-1.622467,-0.411224,419853.479853,120694578.754579,81027692.307692,66.106506,1,1,1,2,1,65.000000
2025-05-02 21:17:43.101,1.089418750600308,1.144843304108979,0,0.5888433423845036,0.8074049097612045,1.078130328707409,0,1.00536593223477,1.118594142133676,1.052437983099567,0,1.13810735836723,0.3582993163200187,0.474184049183657,0,0.7357348918355175,0.06851180231415858,-0.07941138452009848,0,0.3889711495506839,796.5934065934066,787.3260073260074,869.5238095238095,826.8131868131868,769.1941391941392,-0.020325,0.004700,1.007019,0.216827,-0.852356,-0.194397,417435.897436,120654285.714286,81065567.765568,67.408943,1,1,1,2,1,65.000000
2025-05-02 21:17:44.101,0.826896534110679,0.675591626082969,0,0.6507997096691694,0.6734501003768606,0.6940227659955412,0,0.7501949453838959,1.124532449649261,0.8942175027795305,0,1.172469201196272,0.6027671087264295,0.436276432758583,0,0.6783666981103008,0.0707762315441067,-0.09864643505473056,0,0.2314274424099677,774.0293040293041,798.6080586080586,894.908424908425,809.0842490842491,706.3369963369963,-0.022278,0.009644,1.005676,0.560760,-1.786957,0.560760,423076.923077,120731648.351648,81109890.109890,69.046654,1,1,1,2,1,65.000000
2025-05-02 21:17:44.953,,,,,,,,,,,,,,,,,,,,,,,,,,,,,,,,,,,,,,,,,,/muse/elements/blink
2025-05-02 21:17:45.101,0.7796948279024563,0.7656530970760084,0,0.9084619848106804,0.6529824042516115,0.3863369574866882,0,0.5802736823596267,0.6898169925398819,0.5925070382815684,0,0.9958972522254713,0.7273476516517843,0.4703258418586545,0,0.813596487908849,0.01477001129040173,-0.2535522639119397,0,0.1601055901896466,811.0989010989011,795.3846153846154,877.985347985348,771.6117216117216,824.3956043956044,-0.027039,0.007080,1.006531,0.762634,-1.181335,0.358887,420659.340659,120902490.842491,81155824.175824,71.668472,1,1,1,2,1,65.000000
2025-05-02 21:17:46.101,0.9078552405251602,0.7561851314787497,0,1.187554757599753,0.6757238508093661,0.7802918884798724,0,0.8441403207246618,0.6857212442397795,0.5030022605361575,0,0.9059148887586139,0.689466814981999,0.2261611630350719,0,0.9473782846063675,0.02199022778277386,-0.2722832992320396,0,0.1594230026538315,790.5494505494506,794.1758241758242,902.5641025641025,809.8901098901099,725.6776556776557,-0.021240,0.007019,1.007874,0.747681,-2.018738,0.209351,419047.619048,120796923.076923,81106666.666667,75.013168,1,1,1,2,1,65.000000
2025-05-02 21:17:47.101,0.9782854365047543,1.026833332710105,0,1.187554757599753,1.091272423048013,0.7739155826087292,0,0.8441403207246618,1.245583395707605,0.7014266750723875,0,0.9059148887586139,0.647996530691355,0.3536055176445135,0,0.9473782846063675,0.2737392314353929,-0.4282949170871307,0,0.1594230026538315,788.9377289377289,797.8021978021978,869.5238095238095,828.4249084249085,727.6923076923077,-0.011963,0.003296,1.004578,0.396271,-0.351410,-1.099091,425494.505495,120713113.553114,80918095.238095,76.709221,1,1,1,2,1,65.000000
2025-05-02 21:17:48.101,1.314323544213423,1.244991373134722,0,1.432635415369522,0.9507854074831679,0.6106720922416515,0,0.7571567861829837,1.227679707101452,0.7490969633038717,0,0.9934622492768707,0.5832374808186719,0.3812235645021725,0,0.5170517728880203,0.2621764215273041,-0.2832113711457545,0,0.0940728329159406,797.8021978021978,803.4432234432235,852.1978021978023,790.5494505494506,647.5091575091575,-0.020386,0.002502,1.005188,0.366364,-1.241150,-0.284119,423882.783883,120676043.956044,80889890.109890,76.912308,1,1,1,2,1,65.000000
2025-05-02 21:17:49.101,1.265270460843027,0.8866016085304884,0,1.448782732237727,0.9878603903533997,0.4779416082275375,0,0.8729510806315423,0.8549204650755687,0.619727281950892,0,1.017255969712546,0.5436281416617235,0.4122757579950453,0,0.5940531690323433,0.01799120308390516,-0.2513943940838488,0,0.125923654996536,763.5531135531136,776.4468864468864,835.6776556776557,788.9377289377289,723.6630036630037,-0.028625,0.003418,0.999634,0.411224,-0.216827,0.022430,419047.619048,120576117.216117,80874578.754579,71.572395,1,1,1,2,1,65.000000
2025-05-02 21:17:50.101,1.35409901021583,0.777442737158235,0,1.340880971821901,1.041333899134953,0.6093406683737773,0,0.8866020611351451,0.7997972818272505,0.6933377930731569,0,0.8193642405149201,0.5877434442999075,0.3557727139649811,0,0.6601370783432763,0.1669025950176093,-0.2871027318992013,0,0.3006790917791878,818.3516483516484,794.5787545787546,772.8205128205128,751.8681318681319,853.0036630036631,-0.031799,0.007019,1.005737,0.276642,-1.084137,0.037384,425494.505495,120527765.567766,80950329.670330,67.950371,1,1,1,2,1,65.000000
2025-05-02 21:17:51.100,1.147976942457099,0.6939963676554355,0,1.164823945601244,0.8271436353596959,0.4260194383262245,0,0.9013283169458556,0.8024967716995151,0.6714412693795953,0,1.01370804399805,0.626236240614395,0.396431311497129,0,0.6149475772892269,0.03742722405841851,-0.2841777201755694,0,0.1424123300821362,782.4908424908425,793.7728937728938,784.5054945054945,831.6483516483516,868.7179487179487,-0.026123,0.004517,1.008240,1.076660,-1.443024,0.695343,422271.062271,120823516.483516,81096190.476190,65.694977,1,1,1,2,1,65.000000
2025-05-02 21:17:51.893,,,,,,,,,,,,,,,,,,,,,,,,,,,,,,,,,,,,,,,,,,/muse/elements/blink
2025-05-02 21:17:52.100,1.184864025944326,0.6280612920668789,0,0.9551577488231856,0.8112749739816633,0.7497602213439456,0,1.010694820436122,0.8120324092338436,0.8846479273243214,0,1.150321438039795,0.5757789768349556,0.3741555101996624,0,0.6338368409979757,0.1596724211155189,-0.1285087395239513,0,0.1698267885999298,762.3443223443223,799.8168498168499,906.5934065934066,808.6813186813187,724.0659340659341,-0.030090,0.003479,1.007935,0.381317,-0.650482,-0.299072,417435.897436,121041098.901099,81169523.809524,64.812469,1,1,1,2,1,65.000000
2025-05-02 21:17:53.101,1.253475748005827,1.045996361833493,0,1.336435561992423,0.9340228730081515,0.9549986141961936,0,1.233423254848162,0.7190970296770267,0.8212900315551787,0,1.233682133080022,0.525326228486493,0.3202555530660337,0,0.8613355384396554,0.2652104673905345,-0.1804081471960389,0,0.1633091337269708,789.3406593406594,792.5641025641025,854.2124542124542,841.3186813186813,592.3076923076924,-0.035522,0.006897,1.007324,0.740204,-1.951447,0.785065,422271.062271,121119267.399267,81202564.102564,65.648376,1,1,1,2,1,65.000000
2025-05-02 21:17:54.101,0.9948534080603431,0.7429727656224284,0,1.498167965258643,0.7267918271810612,0.6493998972333083,0,0.9558196632945094,0.9439687411684125,0.767123773967301,0,1.180573363084386,0.7366450885662428,0.4823540426980902,0,0.912827849029768,0.3613708179778082,-0.09010510854543241,0,0.1662849957173519,761.5384615384615,801.4285714285714,761.941391941392,819.5604395604396,886.0439560439561,-0.032837,0.008057,1.006042,0.695343,-1.861725,-0.598145,420659.340659,120922637.362637,81105860.805861,68.049950,1,1,1,2,1,65.000000
2025-05-02 21:17:54.938,,,,,,,,,,,,,,,,,,,,,,,,,,,,,,,,,,,,,,,,,,/muse/elements/blink
2025-05-02 21:17:55.100,1.12651253464597,0.9704985432761761,0,1.225744576410875,0.748008060871473,0.5173994407808872,0,1.041661995521632,1.018831854342132,0.8009531865465573,0,1.394804274219034,0.6158117960046661,0.3870013661135423,0,0.5664126351403067,0.08038774195015862,-0.2750847165811481,0,0.3577686655195148,809.0842490842491,782.0879120879121,902.5641025641025,782.893772893773,671.2820512820513,-0.029175,0.002563,0.999634,0.164490,-0.740204,-0.680389,419853.479853,120549523.809524,80900366.300366,69.831497,1,1,1,2,1,65.000000
2025-05-02 21:17:56.101,1.189597611335444,0.9615964019502712,0,1.091300692955563,1.088329228993903,0.5609628998331559,0,1.018008044871036,1.147166177714268,0.7006636632914087,0,1.431311252470416,0.6151260770294392,0.2833859919917663,0,0.7972476673383481,0.03650580043608992,-0.3300241690582417,0,0.2107582636605243,780.8791208791209,774.8351648351648,879.5970695970697,830.0366300366301,581.4285714285714,-0.028259,0.002747,1.005310,0.097198,-1.114044,-0.082245,424688.644689,120443150.183150,80802857.142857,71.241127,1,1,1,2,1,65.000000
2025-05-02 21:17:57.100,0.9884188240311682,0.8552984371484635,0,0.9354245070979992,0.8080255764977253,0.4933772015718704,0,0.7281651505629968,0.9620823197869771,0.7412952919792966,0,0.9992408678516311,0.5860705908671765,0.4830550028718485,0,0.5858318092655522,-0.1059364760428074,-0.1283228637534609,0,0.1455573831841873,775.6410256410256,789.7435897435897,879.5970695970697,828.4249084249085,737.7655677655678,-0.035767,0.001953,1.006287,0.687866,-1.510315,0.583191,422271.062271,120399633.699634,80822197.802198,71.051933,1,1,1,2,1,65.000000
2025-05-02 21:17:58.100,1.044628794748354,0.7448033946233142,0,1.211988617780931,0.9859191875375605,0.7045315587770099,0,0.975155789698485,0.8529986305870357,0.936144871485152,0,0.9020382803996023,0.5661003660790943,0.5244621984263856,0,0.5850821095651095,0.1378815450411429,-0.1238035557005501,0,0.1441627896107541,811.9047619047619,792.967032967033,843.7362637362637,792.967032967033,722.0512820512821,-0.031982,0.005981,1.010071,0.493469,-1.637421,0.358887,422271.062271,120562417.582418,80874578.754579,69.383591,1,1,1,2,1,65.000000
2025-05-02 21:17:59.100,1.460439561914459,0.8340184666520188,0,0.956796233352093,1.134267121771778,1.031278335237792,0,0.9264912029758863,0.9186704614304625,0.8621605640478198,0,0.8753780890540328,0.6067778449374926,0.4555062299027448,0,0.691625051237921,0.06427394966592624,-0.1445470136707142,0,0.1726220350449863,818.3516483516484,811.5018315018315,863.4798534798535,863.0769230769231,586.6666666666666,-0.034180,0.000305,1.002319,0.568237,-1.136475,-0.000000,425494.505495,120698608.058608,80933406.593407,68.044678,1,1,1,2,1,65.000000
2025-05-02 21:18:00.100,1.142579337433152,0.7540439382501228,0,1.081195994258353,1.012686956355404,0.8253388503487088,0,1.013969637724162,0.9183755084376457,0.7283757466039048,0,1.144944721147611,0.6415444191449322,0.462255555393614,0,0.725088918241073,-0.04257188555782677,-0.1087258784976306,0,0.3189566843436693,792.5641025641025,809.4871794871796,856.2271062271062,827.2161172161173,703.919413919414,-0.034912,0.004150,1.002930,0.986938,-1.525269,0.777588,422271.062271,120904908.424908,81019633.699634,66.926682,1,1,1,2,1,65.000000
2025-05-02 21:18:01.100,1.000684664927622,0.7766252498580501,0,1.148384870645593,0.7381986785128088,0.6110160240464944,0,1.006853710338316,0.9854582815457776,0.7060664598288972,0,1.111567036301023,0.7202207228925321,0.4270872233814633,0,0.6885335906105265,0.04405468894680514,-0.2181386299895298,0,0.2346498123575104,815.5311355311355,799.8168498168499,842.5274725274726,789.7435897435897,700.2930402930403,-0.035950,0.007446,1.006897,0.299072,-1.757050,-0.687866,419853.479853,121007252.747253,81042197.802198,67.056618,1,1,1,2,1,65.000000
2025-05-02 21:18:02.100,0.4004756947612579,0.5476457319906893,0,1.262141200864056,0.4046374276648781,0.3597846490421608,0,1.100023714942443,0.8255722555191169,0.4719426293524525,0,0.9578029081261146,0.6009112980106938,0.3534922143250134,0,0.7294273685309974,-0.07884088862491442,-0.3153987836339546,0,0.2044134236364086,801.8315018315019,798.2051282051282,863.0769230769231,844.5421245421246,664.4322344322344,-0.042542,0.000916,1.009155,0.575714,-0.904694,-0.508423,421465.201465,120783223.443223,80895531.135531,68.600098,1,1,1,2,1,65.000000
2025-05-02 21:18:03.107,0.8487134962218124,0.6976278531627009,0,1.319924083248173,0.501026440257653,0.2196657633134257,0,1.105496815752825,1.180370572239709,0.6341678276937959,0,0.9174852023473681,0.7270319576539367,0.3391820368694193,0,0.8166768931667114,0.03707260507454824,-0.2380943713415849,0,0.4684347330809998,709.1575091575091,840.1098901098901,785.7142857142858,665.6410256410256,703.919413919414,-0.033936,-0.003418,1.006409,0.530853,-1.809387,0.186920,421465.201465,120529377.289377,80767399.267399,70.588623,1,1,1,2,1,65.000000
2025-05-02 21:18:03.394,,,,,,,,,,,,,,,,,,,,,,,,,,,,,,,,,,,,,,,,,,/muse/elements/blink
2025-05-02 21:18:04.103,1.109913759440189,0.6698781480093389,0,1.069414988942815,0.5726039018299781,0.2518698158746894,0,0.6884246997679798,1.124379119303345,0.5707735717193854,0,0.754686368233125,0.950600112228424,0.4193143690099693,0,0.8318805359155192,0.2473731791531929,-0.009704374313213533,0,0.4976049599434706,863.8827838827839,782.0879120879121,872.3443223443223,816.7399267399268,661.2087912087912,-0.032227,-0.001099,1.005066,0.560760,-1.300964,-0.142059,420659.340659,120443150.183150,80834285.714286,72.419777,1,1,1,2,1,65.000000
2025-05-02 21:18:04.179,,,,,,,,,,,,,,,,,,,,,,,,,,,,,,,,,,,,,,,,,,/muse/elements/blink
2025-05-02 21:18:05.105,1.107097703805191,0.6020531114704455,0,1.102293273867277,0.5508806241882739,0.1513706910358131,0,0.7383978957156773,1.017257465150647,0.4594082009958582,0,0.7184323141320762,0.9505880602078893,0.5232135409863888,0,0.8662317143590375,0.2406195911718445,0.08151212706662635,0,0.5025770334424962,790.1465201465202,791.3553113553114,884.0293040293041,821.5750915750916,658.7912087912088,-0.033875,-0.000427,1.006836,0.426178,-1.353302,-0.127106,418241.758242,120581758.241758,80906007.326007,73.269547,1,1,1,2,1,65.000000
2025-05-02 21:18:06.100,1.07646758971839,0.8713210520752392,0,1.304630979171739,0.9234704924934704,0.7303197191686964,0,1.210098240197088,1.150463848644964,0.6533676715366196,0,1.233984899659234,0.468775681091694,0.4052538483408338,0,0.8243255269297701,-0.1704010404426781,-0.04615784411091627,0,0.1761384636080755,810.2930402930403,780.8791208791209,857.8388278388279,857.8388278388279,702.3076923076924,-0.029602,-0.000305,1.004089,0.224304,-1.233673,-0.269165,424688.644689,120679267.399267,80993040.293040,72.011902,1,1,1,2,1,65.000000
2025-05-02 21:18:07.103,0.8432983692972121,1.048117002519892,0,1.123269884075663,0.8942417090160658,0.7369826925647595,0,1.134577932692886,1.031550569004805,0.8237124976612514,0,0.9341969486421011,0.4906816548484271,0.4343424559074568,0,0.8359464560020067,-0.1134835780571446,-0.09473804132709325,0,0.1474533741035225,825.2014652014652,783.6996336996338,901.7582417582418,763.956043956044,668.0586080586081,-0.034607,-0.002014,1.005493,0.381317,-1.114044,-0.411224,422271.062271,120929890.109890,80971282.051282,69.989235,1,1,1,2,1,65.000000
2025-05-02 21:18:08.106,1.042569692451823,0.3211246757241554,0,1.116190595986198,0.4137001199229072,0.1202605094921133,0,0.6275917378397852,1.025419112900685,0.7503118256247338,0,1.283334170018369,0.5143488180476921,0.4528277914734118,0,0.8937677769584959,0.0633468391867559,-0.2395410599709019,0,0.03449209026713487,792.5641025641025,816.3369963369963,961.7948717948718,804.6520146520147,571.7582417582418,-0.030640,-0.001526,1.002014,0.904694,-2.160797,0.687866,423076.923077,120805787.545788,80918901.098901,67.674446,1,1,1,2,1,65.000000
2025-05-02 21:18:08.266,,,,,,,,,,,,,,,,,,,,,,,,,,,,,,,,,,,,,,,,,,/muse/elements/blink
2025-05-02 21:18:09.100,0.7968800293400845,0.8881501893642556,0,1.100206182395998,0.2233032626668351,0.71528805864596,0,0.5958087583475644,0.9914862514733971,0.752879585941699,0,1.190501259270834,0.5033074017678981,0.4001147712805609,0,0.8000915949885632,0.0121199847649569,-0.1635592872692345,0,-0.09890128951962388,777.6556776556777,797.8021978021978,954.9450549450549,831.6483516483516,683.7728937728938,-0.051147,-0.001160,1.010498,2.429962,-5.450592,0.433655,422271.062271,120624468.864469,80364468.864469,66.090378,1,1,1,2,1,65.000000
2025-05-02 21:18:09.330,,,,,,,,,,,,,,,,,,,,,,,,,,,,,,,,,,,,,,,,,,/muse/elements/blink
2025-05-02 21:18:09.862,,,,,,,,,,,,,,,,,,,,,,,,,,,,,,,,,,,,,,,,,,/muse/elements/blink
2025-05-02 21:18:10.100,0.7968800293400845,0.9480982665344048,0,1.070256441941287,0.2233032626668351,0.7856075912351503,0,0.5102585093094236,0.9914862514733971,0.7327050628209201,0,1.14472712891849,0.5033074017678981,0.4275060511778566,0,0.7519129866862788,0.0121199847649569,-0.1967746784008494,0,-0.11991240302168,805.8608058608058,780.4761904761905,730.9157509157509,745.8241758241759,953.7362637362637,-0.037842,0.003235,1.003967,0.844879,-0.515900,0.127106,421465.201465,120314212.454212,81110695.970696,65.726372,1,1,1,2,1,65.000000
2025-05-02 21:18:10.694,,,,,,,,,,,,,,,,,,,,,,,,,,,,,,,,,,,,,,,,,,/muse/elements/blink
2025-05-02 21:18:11.099,0.7968800293400845,1.259637731689132,0,1.070256441941287,0.2233032626668351,0.917432190589003,0,0.5102585093094236,0.9914862514733971,0.6181166929034111,0,1.14472712891849,0.5033074017678981,0.4063953236407508,0,0.7519129866862788,0.0121199847649569,-0.03320411598130418,0,-0.11991240302168,806.2637362637363,784.9084249084249,948.4981684981685,827.2161172161173,557.2527472527472,-0.034119,0.003235,1.004700,0.194397,-2.347717,0.530853,422271.062271,120286007.326007,81046227.106227,66.315765,1,2,1,2,2,65.000000
2025-05-02 21:18:11.781,,,,,,,,,,,,,,,,,,,,,,,,,,,,,,,,,,,,,,,,,,/muse/elements/blink
2025-05-02 21:18:12.099,0.7968800293400845,1.216214687299518,0,1.070256441941287,0.2233032626668351,0.8479666692445618,0,0.5102585093094236,0.9914862514733971,0.6941429423851178,0,1.14472712891849,0.5033074017678981,0.4989929602579684,0,0.7519129866862788,0.0121199847649569,-0.1496794177147104,0,-0.11991240302168,786.1172161172161,793.7728937728938,781.2820512820513,859.8534798534798,842.5274725274726,-0.021362,-0.002319,1.002563,-0.433655,-1.659851,1.226196,423882.783883,120563223.443223,81233186.813187,68.419785,1,2,1,2,2,65.000000
2025-05-02 21:18:13.100,0.7968800293400845,1.066110712987615,0,1.070256441941287,0.2233032626668351,0.7134039549395416,0,0.5102585093094236,0.9914862514733971,0.7854918106040502,0,1.14472712891849,0.5033074017678981,0.4590033028709246,0,0.7519129866862788,0.0121199847649569,-0.1981625482395267,0,-0.11991240302168,813.919413919414,782.4908424908425,875.9706959706959,761.1355311355312,570.1465201465202,-0.016479,-0.005554,1.005066,1.278534,-0.986938,0.732727,422271.062271,120402857.142857,81136483.516484,70.807961,1,2,1,2,2,65.000000
2025-05-02 21:18:13.422,,,,,,,,,,,,,,,,,,,,,,,,,,,,,,,,,,,,,,,,,,/muse/elements/blink
2025-05-02 21:18:14.100,0.6942716771164611,0.9652842544126419,0,0.7391779266158707,1.030812658867214,0.7785101007194372,0,0.7914008871409121,0.9836427449627498,0.879716946833442,0,0.88261744856258,0.7317938924025374,0.5312730733161432,0,0.8776051777903465,0.1631469817379847,-0.1883689551308647,0,0.1213221592914126,801.8315018315019,797.3992673992674,964.2124542124542,840.1098901098901,554.4322344322344,-0.022034,-0.005676,0.998047,0.874786,-1.360779,-0.186920,421465.201465,120270695.970696,81119560.439560,71.310738,1,1,1,2,1,65.000000
2025-05-02 21:18:15.043,,,,,,,,,,,,,,,,,,,,,,,,,,,,,,,,,,,,,,,,,,/muse/elements/blink
2025-05-02 21:18:15.099,0.7113734448921567,0.96644834744132,0,0.6893353129391074,1.015938975456507,0.6505166438144849,0,0.751948783442472,0.9767608108259522,0.6363114485514112,0,0.851004476207036,0.7179364453745848,0.4776164167897338,0,0.8951447822609377,0.1305890998331243,-0.2864669565238216,0,0.1453113718552568,777.6556776556777,789.7435897435897,803.4432234432235,856.6300366300367,803.040293040293,-0.019653,-0.000610,1.008057,0.336456,-1.151428,-0.485992,422271.062271,120095824.175824,81013992.673993,78.832321,1,1,1,2,1,65.000000
2025-05-02 21:18:16.099,0.7113734448921567,1.043629705887034,0,0.6893353129391074,1.015938975456507,0.7657834904947081,0,0.751948783442472,0.9767608108259522,0.7406720120244455,0,0.851004476207036,0.7179364453745848,0.3368917973683177,0,0.8951447822609377,0.1305890998331243,-0.1443712286336941,0,0.1453113718552568,834.4688644688645,803.8461538461539,883.2234432234433,779.2673992673992,631.3919413919414,-0.016663,0.001343,1.009216,0.687866,-0.927124,-0.598145,422271.062271,120112747.252747,81010769.230769,78.832321,1,2,1,2,2,65.000000
2025-05-02 21:18:17.100,0.7042069419808991,0.6427934830392212,0,0.7687234822823765,0.8932563606347544,0.5785517690864002,0,0.7703856497017769,0.7504107868719395,0.5817373268265935,0,0.8569996291656474,0.3681961857292987,0.243087231602209,0,0.4998294568975302,-0.136798173862973,-0.2953804943082532,0,-0.004769180918419898,794.5787545787546,790.952380952381,1014.175824175824,800.6227106227107,575.3846153846154,-0.022217,0.006226,1.010315,0.231781,-0.695343,-0.725250,420659.340659,120106300.366300,80993040.293040,78.832321,1,1,1,2,1,65.000000
2025-05-02 21:18:18.100,0.5866829693277154,0.4618553063951611,0,0.6635838794567066,0.7527722902553298,0.4009073644360966,0,0.596003898450294,0.8161467349003307,0.5946989158623855,0,0.8125229911409814,0.443355198217649,0.3357943578948198,0,0.5322545456401405,-0.153952632509176,-0.2188142938399995,0,-0.09837649141078769,777.2527472527473,784.1025641025641,880,835.6776556776557,708.3516483516484,-0.033264,-0.000488,1.006836,0.882263,-0.456085,-0.007477,421465.201465,120103076.923077,80901978.021978,75.809013,1,1,1,2,1,65.000000
2025-05-02 21:18:19.100,0.9663545262513322,0.5373665549757046,0,1.006679078164898,0.6950046835086907,0.3072796615764228,0,0.7232199469568847,0.8010396621030969,0.6331283639753565,0,0.9192620108942046,0.3779067507162762,0.2072990330333412,0,0.7585717671083694,0.02600319063093667,-0.09968715090881827,0,0.3014785413624816,818.7545787545788,797.8021978021978,895.7142857142858,778.8644688644689,618.0952380952381,-0.038818,-0.002380,1.009705,0.321503,-1.510315,1.151428,423076.923077,120109523.809524,80893919.413919,69.192566,1,1,1,2,1,65.000000
2025-05-02 21:18:20.100,0.9247247741156865,0.3540075367015112,0,1.085626254850276,0.6260086014044755,0.2526891186362826,0,1.21272015848582,0.9517673806799033,0.6755481845407887,0,1.124430624440075,0.2430354093033349,0.2296784338077649,0,0.8054563775837031,0.08185993602047789,-0.107827539948967,0,0.2650403106958931,810.2930402930403,805.8608058608058,989.5970695970697,816.7399267399268,496.8131868131868,-0.039185,0.003357,1.008179,0.844879,-2.041168,0.800018,419047.619048,120166739.926740,80943882.783883,66.516312,1,1,1,2,1,65.000000
2025-05-02 21:18:21.100,1.0833990464675,0.9050311164581313,0,1.144527463995745,0.5321248036240974,0.4818424637410652,0,1.445899752586558,0.7644585748174615,0.6238893167152789,0,1.056273974155399,0.3860050977669278,0.2081651491137436,0,0.7017293188114118,-0.03087781875374583,-0.2694296733635999,0,0.09959103627207916,754.2857142857143,826.4102564102565,764.3589743589744,810.6959706959707,847.3626373626374,-0.025391,0.002075,1.004456,1.061707,-0.904694,-0.224304,420659.340659,120464908.424908,81084102.564103,65.863258,1,1,1,2,1,65.000000
2025-05-02 21:18:21.323,,,,,,,,,,,,,,,,,,,,,,,,,,,,,,,,,,,,,,,,,,/muse/elements/blink
2025-05-02 21:18:22.100,1.232002235464613,0.8677780338130571,0,0.9887552819056673,1.056767752236264,0.6888150891305609,0,0.8731428919835349,1.25193982857234,0.7250549609553827,0,0.8195580133857695,0.4353539682200883,0.2590000025060002,0,0.6034242275901194,-0.1082378816314813,-0.2814842352256598,0,0.08612477654852534,820.3663003663004,784.5054945054945,821.1721611721612,739.3772893772893,699.8901098901099,-0.032410,-0.000916,1.006592,0.672913,-0.986938,-0.037384,421465.201465,120717142.857143,81163882.783883,66.478996,1,1,1,2,1,65.000000
2025-05-02 21:18:23.100,0.9510429618902196,0.7868049213529105,0,1.001948635947964,0.4492247616887061,0.532751404405028,0,0.6165251026793462,0.7234504934973282,0.7595341572364976,0,0.7808249166581551,0.7085696579649973,0.4028619717549833,0,0.8632622418022996,0.1025653080078738,-0.3068721644884451,0,0.253964937747237,749.4505494505495,815.934065934066,966.2271062271062,751.8681318681319,520.5860805860806,-0.030762,-0.001831,1.011902,0.598145,-0.254211,0.097198,418241.758242,120460073.260073,81007545.787546,67.893448,1,1,1,2,1,65.000000
2025-05-02 21:18:23.259,,,,,,,,,,,,,,,,,,,,,,,,,,,,,,,,,,,,,,,,,,/muse/elements/blink
2025-05-02 21:18:24.101,1.064562951556088,1.124964828902935,0,0.9329364837412577,0.5574706805931691,0.6702226678970599,0,0.6879197457792773,0.502998695483873,0.8431180162664201,0,0.694373784888024,0.7113811054089715,0.4920814864502597,0,0.9206014238148761,0.1494525428501918,-0.1887507660569542,0,0.228158455789148,762.7472527472528,778.4615384615385,749.4505494505495,834.4688644688645,895.7142857142858,-0.027405,-0.005005,1.007996,0.299072,-1.248627,-0.777588,423076.923077,120127252.747253,80889084.249084,71.373085,1,1,1,2,1,65.000000
2025-05-02 21:18:25.101,1.122378219312521,1.13854115590948,0,0.9352062751229341,0.606515850943923,0.6658344747096634,0,0.742710768971799,0.502998695483873,0.8308467770436321,0,0.6480478077527656,0.7166149753025282,0.4340016979703655,0,0.9370245407572149,0.1661981240113481,-0.006969023354297627,0,0.1757601934554422,758.7179487179487,770,869.5238095238095,814.7252747252747,706.7399267399268,-0.025024,0.000122,1.004333,0.530853,-1.846771,-0.433655,420659.340659,120034578.754579,80879413.919414,74.061722,1,1,1,2,1,65.000000
2025-05-02 21:18:26.101,1.122378219312521,1.13854115590948,0,0.9352062751229341,0.606515850943923,0.6658344747096634,0,0.742710768971799,0.502998695483873,0.8308467770436321,0,0.6480478077527656,0.7166149753025282,0.4340016979703655,0,0.9370245407572149,0.1661981240113481,-0.006969023354297627,0,0.1757601934554422,758.7179487179487,770,869.5238095238095,814.7252747252747,706.7399267399268,-0.025024,0.000122,1.004333,0.530853,-1.846771,-0.433655,420659.340659,120034578.754579,80879413.919414,74.061722,1,1,1,2,1,65.000000
2025-05-02 21:18:26.521,,,,,,,,,,,,,,,,,,,,,,,,,,,,,,,,,,,,,,,,,,/muse/event/disconnected Muse-1C98
2025-05-02 21:18:36.127,,,,,,,,,,,,,,,,,,,,,,,,,,,,,,,,,,,,,,,,,,/muse/event/connected Muse-1C98
2025-05-02 21:18:37.105,1.122378219312521,1.13854115590948,0,0.9352062751229341,0.606515850943923,0.6658344747096634,0,0.742710768971799,0.502998695483873,0.8308467770436321,0,0.6480478077527656,0.7166149753025282,0.4340016979703655,0,0.9370245407572149,0.1661981240113481,-0.006969023354297627,0,0.1757601934554422,782.4908424908425,795.3846153846154,716.8131868131868,831.2454212454213,805.4578754578755,-0.017029,0.005188,1.004211,0.142059,-0.366364,-0.052338,418241.758242,119909670.329670,80997069.597070,74.900444,1,1,1,2,1,65.000000
2025-05-02 21:18:38.114,0,0,0,0,0,0,0,0,0,0,0,0,0,0,0,0,0,0,0,0,819.1575091575091,796.1904761904763,807.0695970695971,801.025641025641,755.8974358974359,-0.015625,0.002563,1.010010,0.807495,-1.607513,0.022430,417435.897436,119953992.673993,80910036.630037,75.004776,0,4,4,4,4,65.000000
2025-05-02 21:18:39.105,0,0,0,0,0,0,0,0,0,0,0,0,0,0,0,0,0,0,0,0,772.014652014652,803.040293040293,913.8461538461539,834.4688644688645,639.8534798534798,-0.023010,0.001770,1.009338,0.209351,-2.489777,0.620575,417435.897436,119987838.827839,80922124.542125,75.004776,0,4,4,4,4,65.000000
2025-05-02 21:18:40.105,0.8265710784087064,0.6985037106133272,0,1.320393073433439,0.6293320845842679,0.2119718104094411,0,0.8458006324110594,0.6415862526784217,0.667510116600225,0,1.036616466752807,0.8772570263203355,0.405656989662382,0,0.7593251943094609,0.06267256426409644,-0.2152373895736803,0,0.3793824063529489,785.3113553113553,792.1611721611722,596.7399267399268,811.5018315018315,1065.750915750916,-0.018616,0.009277,1.003052,0.583191,-0.882263,-0.186920,415824.175824,120030549.450549,81148571.428571,75.004776,1,1,1,2,1,65.000000
2025-05-02 21:18:40.963,,,,,,,,,,,,,,,,,,,,,,,,,,,,,,,,,,,,,,,,,,/muse/elements/blink
2025-05-02 21:18:41.106,0.8265710784087064,0.9082169807746779,0,1.450594774014363,0.6293320845842679,0.6242138978614292,0,0.9730401683212351,0.6415862526784217,0.6977370828168233,0,1.069965852790039,0.8772570263203355,0.4644401400840703,0,0.7653809760962936,0.06267256426409644,-0.1428703022136769,0,0.3597423499357416,804.6520146520147,780.4761904761905,904.981684981685,784.9084249084249,568.5347985347986,-0.025085,0.007690,1.002197,0.478516,-0.912170,-0.089722,415824.175824,120168351.648352,81233992.673993,72.670929,1,1,1,2,1,65.000000
2025-05-02 21:18:41.746,,,,,,,,,,,,,,,,,,,,,,,,,,,,,,,,,,,,,,,,,,/muse/elements/blink
2025-05-02 21:18:42.106,0.8265710784087064,1.113238421685223,0,1.529723154799697,0.6293320845842679,0.8376369674710251,0,0.9908619163652818,0.6415862526784217,0.7884550619716624,0,0.8111917943452964,0.8772570263203355,0.4498389309958594,0,0.7665843452557137,0.06267256426409644,-0.125410938221647,0,0.3794997533600919,813.5164835164835,818.3516483516484,940.4395604395605,887.6556776556777,691.8315018315019,-0.034668,0.005127,1.007812,0.515900,-1.637421,0.291595,417435.897436,119988644.688645,81123589.743590,71.506500,1,1,1,2,1,65.000000
2025-05-02 21:18:43.114,1.297255721407819,1.251744037768121,0,1.529723154799697,1.147261744233045,0.9688230900656535,0,0.9908619163652818,0.8114232458895982,0.8438085264856501,0,0.8111917943452964,0.7225890068019203,0.2693782571460195,0,0.7665843452557137,0.2292959977884559,-0.3313704814221663,0,0.3794997533600919,809.0842490842491,786.1172161172161,680.1465201465202,767.5824175824176,1033.516483516484,-0.034485,-0.005554,1.001160,0.478516,-0.568237,-0.403748,418241.758242,119823443.223443,81003516.483516,71.854530,1,1,1,2,1,65.000000
2025-05-02 21:18:44.112,1.03704319536679,0.9913872030969783,0,1.52798464634305,1.059936912340024,0.5710627743295646,0,1.048212928687698,0.9428936800927791,0.7341765755126497,0,0.9012598778813316,0.5980591343407891,0.3830096436016318,0,0.85464885184332,0.04130736616598328,-0.2764765307926574,0,0.2488491201315459,797.8021978021978,784.5054945054945,925.5311355311355,779.2673992673992,576.996336996337,-0.024292,0.003540,1.000977,1.151428,-1.899109,1.031799,415018.315018,119881465.201465,80976923.076923,72.089706,1,1,1,2,1,65.000000
2025-05-02 21:18:44.897,,,,,,,,,,,,,,,,,,,,,,,,,,,,,,,,,,,,,,,,,,/muse/elements/blink
2025-05-02 21:18:45.106,0.6080188478011517,0.497810283752076,0,1.303849542772801,0.9789409232084934,0.6063243080723589,0,1.099263447138832,0.7772765425830811,0.8043857798475872,0,0.9129130544178763,0.6506358309612873,0.3560299457535286,0,0.7576417746145063,0.1014476290008575,-0.2487782584424508,0,0.2056850254168838,799.0109890109891,828.021978021978,911.4285714285714,860.6593406593407,708.3516483516484,-0.030090,-0.000427,1.006470,0.366364,-1.211243,-0.418701,415824.175824,120104688.644689,80973699.633700,71.937454,1,1,1,2,1,65.000000
2025-05-02 21:18:45.302,,,,,,,,,,,,,,,,,,,,,,,,,,,,,,,,,,,,,,,,,,/muse/elements/blink
2025-05-02 21:18:46.106,1.431736587195905,0.5552877667009993,0,0.4691279759452807,1.387434499563827,0.5905534537520184,0,1.038823109316011,0.970322684846839,0.5567051160965738,0,0.7712108687481938,0.567239534095801,0.2446336755102869,0,0.7368438910306724,0.3017673322880579,-0.1946057807231225,0,0.3326250244243428,765.1648351648352,780.0732600732601,803.4432234432235,793.3699633699634,707.948717948718,-0.041687,-0.004089,1.010925,0.463562,-1.278534,0.059814,416630.036630,120242490.842491,80336263.736264,72.019913,1,1,1,2,1,65.000000
2025-05-02 21:18:47.052,,,,,,,,,,,,,,,,,,,,,,,,,,,,,,,,,,,,,,,,,,/muse/elements/blink
2025-05-02 21:18:47.106,1.440130597432952,0.8443085631894196,0,1.262486245774153,1.174760561804531,0.6368953715630977,0,0.7187347839320514,0.9732681554022417,0.7567850297662336,0,0.9140936225003576,0.5175950254200602,0.3934570055602076,0,1.055703128455369,0.2240325418428893,-0.101229110494522,0,0.5787464275720646,863.8827838827839,794.1758241758242,1000.07326007326,859.4505494505495,489.5604395604396,-0.019714,0.005676,1.003296,1.024323,-2.534637,-0.014954,415018.315018,120132087.912088,79918021.978022,72.229790,1,1,1,2,1,65.000000
2025-05-02 21:18:48.107,1.232625447537172,0.7761996038183322,0,1.188133694824245,0.4225922372556127,0.6110475626387083,0,0.6211442267023803,0.4869613774632983,0.7848980583651161,0,0.8085307234582189,0.4879543177332732,0.4221129051484374,0,1.055442271734971,0.2113034936571325,-0.09150881808127662,0,0.5829699647713713,801.8315018315019,788.5347985347986,922.7106227106227,842.5274725274726,729.3040293040293,-0.039734,-0.000854,1.004639,0.665436,-0.500946,-0.874786,414212.454212,119659047.619048,80764981.684982,72.050392,1,1,1,2,1,65.000000
2025-05-02 21:18:48.268,,,,,,,,,,,,,,,,,,,,,,,,,,,,,,,,,,,,,,,,,,/muse/elements/blink
2025-05-02 21:18:49.110,1.232625447537172,1.125365650155348,0,1.188133694824245,0.4225922372556127,0.9809841178041228,0,0.6211442267023803,0.4869613774632983,0.7226092908300418,0,0.8085307234582189,0.4879543177332732,0.4668704569896861,0,1.055442271734971,0.2113034936571325,-0.13764175456175,0,0.5829699647713713,834.8717948717949,807.8754578754579,892.0879120879121,778.8644688644689,668.0586080586081,-0.029663,0.000732,1.004944,-0.000000,-1.667328,0.381317,418241.758242,119517216.117216,80838315.018315,71.984566,1,1,1,2,1,65.000000
2025-05-02 21:18:49.759,,,,,,,,,,,,,,,,,,,,,,,,,,,,,,,,,,,,,,,,,,/muse/elements/blink
2025-05-02 21:18:50.114,1.449160884854102,1.200501982899695,0,1.288542271674358,1.25253059664084,0.8438117792777203,0,0.8431420718546686,1.374525678940294,0.7068378030761349,0,0.6764210790181018,0.8066086129289074,0.2944836901381934,0,0.6524738016354762,0.1540757479916521,-0.2802265431336731,0,0.0853302189856423,816.3369963369963,799.4139194139194,958.5714285714286,787.3260073260074,523.4065934065934,-0.030151,-0.011536,1.006104,0.089722,-1.241150,-0.650482,415824.175824,119729963.369963,80955164.835165,72.296135,1,1,1,2,1,65.000000
2025-05-02 21:18:51.106,1.449160884854102,1.270241187030273,0,1.288542271674358,1.25253059664084,0.8989576657919254,0,0.8431420718546686,1.374525678940294,0.7169931650545239,0,0.6764210790181018,0.8066086129289074,0.306519943205875,0,0.6524738016354762,0.1540757479916521,-0.2211842683287703,0,0.0853302189856423,807.0695970695971,802.2344322344322,889.6703296703297,864.6886446886447,618.4981684981685,-0.024902,-0.001526,1.023560,1.921539,-2.833710,0.800018,414212.454212,119921758.241758,80981758.241758,72.889771,1,1,1,2,1,65.000000
2025-05-02 21:18:52.115,0.9332850417618713,0.8499297331085149,0,0.7328633508664221,0.7879508931790387,0.5329692831735839,0,0.8271042663432867,1.103868497180621,0.6739483436513319,0,0.9964291734762032,0.4963380801265452,0.3606296545476591,0,0.4583080789902408,0.1918972491483696,-0.1268767105809921,0,0.3335725484782613,794.981684981685,790.952380952381,841.7216117216118,744.2124542124542,630.5860805860806,-0.017151,-0.001526,1.010254,-0.104675,-4.538422,0.097198,419047.619048,119852454.212454,80850402.930403,73.550461,1,1,1,2,1,65.000000
2025-05-02 21:18:52.638,,,,,,,,,,,,,,,,,,,,,,,,,,,,,,,,,,,,,,,,,,/muse/elements/blink
2025-05-02 21:18:53.107,1.07225908432045,1.001738915173444,0,0.9212179625809809,0.7471443714889427,0.9223585882804139,0,1.034664817629283,0.995313212909726,0.9308288154835423,0,0.873911725940678,0.4309861037161689,0.3349685128335899,0,0.2943285026668275,0.04788216959462656,-0.08210182715700301,0,0.2530846916600608,828.8278388278388,807.4725274725275,964.2124542124542,783.6996336996338,527.8388278388279,-0.023499,-0.011902,1.006104,1.338348,-1.824341,0.373840,418241.758242,119828278.388278,80857655.677656,75.741676,1,1,1,2,1,65.000000
2025-05-02 21:18:53.428,,,,,,,,,,,,,,,,,,,,,,,,,,,,,,,,,,,,,,,,,,/muse/elements/blink
2025-05-02 21:18:54.106,1.24809544662747,1.109167275422848,0,0.9212179625809809,0.822960927607298,1.032639565006442,0,1.034664817629283,0.7724160751368198,0.9725499695647016,0,0.873911725940678,0.428508744116915,0.4152407022684926,0,0.2943285026668275,-0.1913206060310111,0.04382466642327629,0,0.2530846916600608,795.7875457875458,799.0109890109891,918.6813186813187,840.1098901098901,711.978021978022,-0.029480,-0.013367,1.009583,0.179443,-0.919647,-3.424377,416630.036630,119883076.923077,81189670.329670,80.246361,1,1,1,2,1,65.000000
2025-05-02 21:18:55.107,1.152501482626374,1.077155922715786,0,0.8565227625472995,0.769604998267598,0.6325583660670776,0,0.7330910843015498,0.6522369577622592,0.435292345911203,0,0.6623300008517741,0.4937777339043755,0.4560008100836986,0,0.7077904220196938,0.07603445107258464,-0.08585866072665418,0,0.07142837964882838,808.6813186813187,784.9084249084249,752.2710622710623,753.0769230769231,821.5750915750916,-0.031311,-0.001099,1.006653,2.325287,-0.710297,2.041168,419853.479853,119932234.432234,81007545.787546,83.882462,1,1,1,2,1,65.000000
2025-05-02 21:18:55.391,,,,,,,,,,,,,,,,,,,,,,,,,,,,,,,,,,,,,,,,,,/muse/elements/blink
2025-05-02 21:18:56.107,1.052188026847667,1.058662674918748,0,0.9447456717088542,0.6469652594672892,0.8187859067174904,0,0.8190727527829651,0.7131154670538793,0.7545800255678453,0,0.8967155790229039,0.5045575738308556,0.3873670664215076,0,0.6428980463541361,0.009648460033877225,-0.13332828719166,0,0.02089258615040283,807.4725274725275,784.1025641025641,973.0769230769231,767.5824175824176,526.6300366300367,-0.037720,-0.009460,1.008728,0.246735,-1.929016,-1.487885,417435.897436,119813772.893773,80914871.794872,84.634384,1,1,1,2,1,65.000000
2025-05-02 21:18:56.714,,,,,,,,,,,,,,,,,,,,,,,,,,,,,,,,,,,,,,,,,,/muse/elements/blink
2025-05-02 21:18:57.108,0.9579069199920912,1.235785609799135,0,1.287390173039427,0.4766889444294835,1.154778598207846,0,0.7099895284793087,0.6738717973368396,1.07997706847067,0,0.8038753869700568,0.5223964310499682,0.4749687075526269,0,0.6151945774327092,-0.02674100272832787,0.006297078288893325,0,0.05980980022273595,790.952380952381,793.7728937728938,848.974358974359,828.4249084249085,846.5567765567765,-0.037231,-0.012695,1.010925,0.575714,0.224304,0.171967,415018.315018,119851648.351648,80980146.520147,74.289009,1,1,1,2,1,65.000000
2025-05-02 21:18:57.842,,,,,,,,,,,,,,,,,,,,,,,,,,,,,,,,,,,,,,,,,,/muse/elements/blink
2025-05-02 21:18:58.111,0.9579069199920912,1.357612996150758,0,1.292536580074557,0.4766889444294835,1.350312734284602,0,0.5778835254624066,0.6738717973368396,1.065539461612886,0,0.6597027783498236,0.5223964310499682,0.4844710234090728,0,0.5457048111514744,-0.02674100272832787,0.08084810394038608,0,0.05464747730760518,807.4725274725275,792.1611721611722,842.5274725274726,751.8681318681319,665.6410256410256,-0.041138,-0.014709,1.005371,0.800018,-1.136475,-0.276642,421465.201465,119970915.750916,80966446.886447,70.223442,1,1,1,2,1,65.000000
2025-05-02 21:18:59.107,0.9579069199920912,0.496534182973259,0,1.292536580074557,0.4766889444294835,0.308171597416591,0,0.5778835254624066,0.6738717973368396,0.7898148666090884,0,0.6597027783498236,0.5223964310499682,0.2953072444704773,0,0.5457048111514744,-0.02674100272832787,-0.07851464645806747,0,0.05464747730760518,829.6336996336996,813.1135531135532,965.4212454212454,799.8168498168499,518.5714285714286,-0.048767,-0.012878,1.006226,-0.082245,-1.450500,-0.171967,416630.036630,119964468.864469,80813333.333333,68.001579,1,1,1,2,1,65.000000
2025-05-02 21:19:00.107,0.9800342229955885,0.7256834352158766,0,0.9951086303537674,0.6155832531909264,-0.05600864307411457,0,0.9759966451179484,1.087320603090095,0.8693192798725263,0,0.8864475166030169,0.6306133825763968,0.5125930580203122,0,0.7074128511935288,-0.04200580218950789,-0.2920240259958236,0,-0.008390637963513815,735.7509157509157,832.8571428571429,792.5641025641025,791.7582417582418,766.3736263736264,-0.048340,-0.011230,1.001404,0.463562,-1.697235,0.149536,416630.036630,120086959.706960,80876190.476190,67.687477,1,1,1,2,1,65.000000
2025-05-02 21:19:01.110,0.753768997883331,0.8198142989648742,0,0.7466775375936464,0.6367897164596702,-0.04906909014667014,0,0.5559311372805215,0.8450963097521378,0.5904022214168004,0,0.6681379228514638,0.8162555981532137,0.5700972461350571,0,0.8508495010605606,0.01490466365454581,-0.3610309239009332,0,0.04713998604848226,838.901098901099,792.5641025641025,849.3772893772895,782.0879120879121,659.1941391941392,-0.045654,-0.019470,0.998962,0.874786,-1.936493,-0.411224,421465.201465,120162710.622711,80961611.721612,68.522362,1,1,1,2,1,65.000000
2025-05-02 21:19:01.164,,,,,,,,,,,,,,,,,,,,,,,,,,,,,,,,,,,,,,,,,,/muse/elements/blink
2025-05-02 21:19:02.113,0.753768997883331,0.7177504829920605,0,0.7466775375936464,0.6367897164596702,0.9582209940557349,0,0.5559311372805215,0.8450963097521378,0.6283736810229865,0,0.6681379228514638,0.8162555981532137,0.246642234861313,0,0.8508495010605606,0.01490466365454581,0.1392041009119669,0,0.04713998604848226,824.7985347985348,807.4725274725275,999.2673992673992,788.9377289377289,596.7399267399268,-0.041138,-0.012695,1.013794,0.785065,-0.463562,-0.463562,418241.758242,119978168.498168,81018827.838828,70.523628,1,1,1,2,1,65.000000
2025-05-02 21:19:03.107,0.753768997883331,0.9617669804043244,0,1.158691010487539,0.6367897164596702,0.8247405862593565,0,0.6930042178119137,0.8450963097521378,0.8394279249184502,0,0.9772677436226018,0.8162555981532137,0.4304506104564201,0,0.775755104397662,0.01490466365454581,-0.03159349144172213,0,-0.07758146698524868,799.8168498168499,780.4761904761905,720.0366300366301,830.0366300366301,1026.666666666667,-0.042175,-0.012756,1.002380,0.239258,-1.360779,-0.919647,415018.315018,119685641.025641,80764981.684982,71.680626,1,1,1,2,1,65.000000
2025-05-02 21:19:04.117,1.154828996700383,1.095184353759737,0,1.210463926671337,0.6312256638401861,0.7842514579240415,0,0.5272005134295802,0.9909577562605889,0.7143775097039055,0,1.024591126772077,0.5404902764063745,0.528021516489254,0,0.7231900452736235,0.01044912093708186,-0.2141558007888423,0,-0.05829528996008996,832.0512820512821,813.919413919414,848.1684981684982,781.6849816849817,770.8058608058608,-0.042786,-0.011597,1.001343,0.478516,-1.338348,-0.583191,422271.062271,119531721.611722,80773846.153846,71.680626,1,1,1,2,1,65.000000
2025-05-02 21:19:05.107,1.025258932944667,1.001295603309461,0,0.9959990108850443,0.421684957339339,0.7709769143508758,0,0.4739532896680017,0.6654282991712355,0.6731123079812354,0,0.9939553941239063,0.5591485522221967,0.516695114936266,0,0.5536167842779912,-0.02270880103481159,-0.04540802239500481,0,0.08455211227630173,796.1904761904763,793.7728937728938,995.6410256410256,753.8827838827839,537.9120879120879,-0.044128,-0.018555,1.007019,1.727142,-1.256104,0.755157,419853.479853,119547838.827839,80689230.769231,73.301910,1,1,1,2,1,65.000000
2025-05-02 21:19:06.107,1.052155925835432,0.914143650556047,0,1.085208223301752,0.4406136502384316,0.8516098611653695,0,0.644222305874017,0.5700922553164347,0.8249409892628972,0,0.7243635413626338,0.5661974526700774,0.4965483552892346,0,0.4596699582019386,-0.009898001482619326,-0.1439424975344429,0,0.08938717557367,854.2124542124542,794.1758241758242,898.9377289377289,892.893772893773,735.3479853479854,-0.049988,-0.018372,1.003052,0.508423,-2.108459,0.224304,417435.897436,119490622.710623,80676336.996337,73.366531,1,1,1,2,1,65.000000
2025-05-02 21:19:07.107,1.052155925835432,0.895784131060138,0,1.210624877798529,0.4406136502384316,0.8682702826962867,0,0.8704969336624184,0.5700922553164347,1.125735152137626,0,0.7608575606474924,0.5661974526700774,0.4147723576621914,0,0.4302995684777274,-0.009898001482619326,-0.2773520093517209,0,0.08697763647217267,800.2197802197802,812.7106227106227,816.7399267399268,853.4065934065934,680.5494505494506,-0.039307,-0.011475,1.008911,0.246735,-1.532745,-0.441132,422271.062271,119607472.527473,80766593.406593,70.971443,1,1,1,2,1,65.000000
2025-05-02 21:19:08.107,0.9641891015247136,0.9130393953958814,0,1.057560356862044,1.102654098588202,0.8634280354185684,0,1.05417606391973,0.6723027787260965,0.9769174299885308,0,0.5988618879874968,0.6667620822401384,0.3507284758759661,0,0.6537030002560579,-0.08651333934854417,-0.2758767070720548,0,-0.02063927977423037,834.8717948717949,801.025641025641,995.2380952380953,769.1941391941392,556.0439560439561,-0.037415,-0.003113,1.009216,0.426178,-0.381317,-0.082245,419047.619048,119788791.208791,80901172.161172,69.588707,1,1,1,2,1,65.000000
2025-05-02 21:19:09.107,1.059564017111527,1.150833956147224,0,1.173314748291107,1.216198399385699,0.7424987228989242,0,0.9303233343865412,0.6104249078299341,0.3980213662772982,0,0.6860232453047803,0.7576297846969676,0.377994878233437,0,0.5942440744221467,-0.1843415602532882,-0.2340973081754999,0,-0.05302260016067524,800.2197802197802,795.7875457875458,699.0842490842491,830.4395604395604,965.8241758241759,-0.037048,-0.009644,1.009583,0.665436,-2.026215,0.299072,417435.897436,119775897.435897,80846373.626374,68.062546,1,1,1,2,1,65.000000
2025-05-02 21:19:09.883,,,,,,,,,,,,,,,,,,,,,,,,,,,,,,,,,,,,,,,,,,/muse/elements/blink
2025-05-02 21:19:10.107,0.5066817476233075,0.832117635018508,0,1.074679068864878,0.5169203467739903,0.5221396448382636,0,0.9904809797141996,0.7676008720476452,0.5603602432765269,0,1.222122458784742,0.409260017901993,0.4312872656155168,0,0.5868372598962678,0.08362500821107158,-0.2565593335926416,0,0.1249656648118767,807.4725274725275,796.996336996337,849.3772893772895,766.7765567765568,674.1025641025641,-0.042786,-0.014954,1.005005,-0.037384,-1.816864,-0.388794,423882.783883,119672747.252747,80772234.432234,67.771889,1,1,1,2,1,65.000000
2025-05-02 21:19:11.112,0.9363277047628072,0.9621986792872459,0,1.211844015308933,0.6680395219568053,0.7688088955385403,0,1.323258216946153,0.5212861800128957,0.6896201787820252,0,1.222146702415296,0.6679493061353571,0.4859777935230941,0,0.750108943630503,-0.05844521203661094,-0.3221288376766764,0,0.07841109267975832,798.2051282051282,792.5641025641025,986.7765567765568,763.956043956044,667.6556776556777,-0.025513,-0.016052,1.005188,0.194397,-1.308441,-0.396271,420659.340659,119741245.421245,80731941.391941,68.796913,1,1,1,2,1,65.000000
2025-05-02 21:19:12.107,0.9367693805389458,0.7553547014120148,0,1.134083850392201,0.7762117618421945,0.4763230912885775,0,0.8647914891299675,0.9276173683971413,0.918155038331839,0,1.186268814404227,0.502678734901632,0.4847915697908828,0,0.623061403284882,0.03663820282216184,-0.2689519178267656,0,0.2762165481108415,797.3992673992674,797.8021978021978,942.4542124542124,844.5421245421246,635.8241758241759,-0.033325,-0.017639,1.003357,-0.164490,-1.465454,-0.179443,419047.619048,119887106.227106,80827032.967033,68.439247,1,1,1,2,1,65.000000
2025-05-02 21:19:13.107,0.9159718587346137,0.7975355311906309,0,1.174422253286982,0.7139556436908117,0.3149219381703861,0,0.7583369238145344,0.8825113718208054,0.7976043425217213,0,1.158871782458107,0.5616874249610218,0.3475377783540123,0,0.6071866293536838,0.05058662258939498,-0.04021884599365391,0,0.1826882656521777,795.3846153846154,802.6373626373627,776.8498168498169,856.6300366300367,890.0732600732601,-0.026367,-0.012695,1.009583,0.807495,-1.772003,0.381317,425494.505495,119880659.340659,80803663.003663,67.325874,1,1,1,2,1,65.000000
2025-05-02 21:19:14.107,1.238075318963555,0.8464197789780059,0,1.193633574246812,0.7527844310022751,0.4187263701691882,0,0.8103327823081524,0.8301467144842745,0.6318897717233929,0,0.9431638081849989,0.6006610179873533,0.3140226224123677,0,0.6708340366539413,-0.1408378124294135,-0.1164329615220561,0,0.0598945733900721,832.4542124542124,805.4578754578755,944.0659340659341,757.1062271062272,699.0842490842491,-0.023682,-0.012512,1.008301,0.508423,-1.772003,0.112152,424688.644689,119750109.890110,80771428.571429,68.216110,1,1,1,2,1,65.000000
2025-05-02 21:19:15.107,1.310623602911677,0.7539081872055817,0,1.145023750502023,0.8726908289476317,0.5057349333012909,0,0.941500886238649,0.7838574014585362,0.5396020621425295,0,0.904358347997013,0.6005582214935306,0.3929104057116756,0,0.5372868431833097,-0.06210745652325467,-0.04578363717364771,0,0.049053506149183,791.7582417582418,792.1611721611722,942.8571428571429,816.3369963369963,655.5677655677656,-0.027405,-0.007263,1.003479,0.448608,-1.457977,0.336456,420659.340659,119678388.278388,80757728.937729,68.992874,1,1,1,2,1,65.000000
2025-05-02 21:19:16.107,0.9540752070166156,0.4468445952967144,0,1.062041044241836,0.8476613006952689,0.2942607771936371,0,0.8776409865503818,0.8787041807370962,0.6308835963265861,0,0.9032308102587804,0.5404646071833124,0.3859353665393628,0,0.5158036711142465,-0.008454309919521024,-0.1525969404553399,0,0.2576440518789869,788.1318681318681,802.2344322344322,828.021978021978,836.8864468864469,667.6556776556777,-0.014954,-0.008240,1.008118,0.687866,-1.495361,0.814972,425494.505495,119548644.688645,80747252.747253,69.580559,1,1,1,2,1,65.000000
2025-05-02 21:19:17.107,1.396351826983599,0.8345074906487305,0,1.516105259580819,1.244558539478505,0.9831468154659015,0,1.346820057821436,1.126913557742818,0.8090212732165943,0,1.347666327271127,0.3784674117774848,0.4983134097411915,0,0.5901429677754308,0.01903226417939326,-0.3199597275898846,0,0.07569547817889336,824.7985347985348,810.2930402930403,996.8498168498169,780.4761904761905,532.2710622710623,-0.018250,-0.005249,1.008484,0.082245,-0.934601,-0.583191,422271.062271,119480952.380952,80772234.432234,69.995773,1,1,1,2,1,65.000000
2025-05-02 21:19:18.106,1.02775513971443,0.8475567805064348,0,1.095004212857022,0.7236045940220068,0.645564315698345,0,0.6494936418688789,0.913408993413497,0.6492995026225125,0,0.8013626652595142,0.7096548593762596,0.4933647589010151,0,0.6997554077163977,0.2160793373952791,-0.2190500127064338,0,0.09172196445930002,807.4725274725275,787.3260073260074,853.4065934065934,822.7838827838829,869.1208791208792,-0.018188,-0.007996,1.007812,0.904694,-1.114044,0.291595,419853.479853,119434212.454212,80787545.787546,69.488609,1,1,1,2,1,65.000000
2025-05-02 21:19:19.010,,,,,,,,,,,,,,,,,,,,,,,,,,,,,,,,,,,,,,,,,,/muse/elements/blink
2025-05-02 21:19:19.107,0.849469523005274,0.7951230729763374,0,0.9774928385360864,0.5480159625927788,0.7697991279290096,0,0.4829695705150246,0.7682433006369956,1.036599865060654,0,0.6014524310175942,0.7900901181601683,0.3282862560835118,0,0.6611190445364181,0.1999949864358212,-0.04408119069960206,0,0.09499672927075614,813.1135531135532,792.5641025641025,828.4249084249085,867.5091575091575,613.2600732600732,-0.015381,-0.007141,1.011108,1.375732,-0.613098,0.725250,426300.366300,119486593.406593,80960000.000000,69.783806,1,1,1,2,1,65.000000
2025-05-02 21:19:20.108,0.849469523005274,1.031180749876899,0,0.9774928385360864,0.5480159625927788,0.6458291254626454,0,0.4829695705150246,0.7682433006369956,0.7827505168854892,0,0.6014524310175942,0.7900901181601683,0.3240686829137302,0,0.6611190445364181,0.1999949864358212,0.0380690412838955,0,0.09499672927075614,834.4688644688645,804.6520146520147,1006.117216117216,767.985347985348,551.6117216117216,-0.017395,-0.009155,1.005493,0.388794,-1.532745,-0.747681,423076.923077,119394725.274725,80916483.516484,69.835365,1,1,1,2,1,65.000000
2025-05-02 21:19:21.107,1.156068934267584,1.05698221066869,0,0.9457090070113361,1.408242708930766,0.7694975498899387,0,1.278213778382746,1.162406219762089,0.7044338548871876,0,1.202990848290948,0.5489476839737519,0.3807734313123435,0,0.6770839545900764,0.1362834356466653,0.006904018732207082,0,0.1312845953389276,794.981684981685,798.6080586080586,873.1501831501831,807.0695970695971,690.6227106227107,-0.022827,-0.006531,1.012146,0.097198,-1.338348,1.502838,419853.479853,119292380.952381,80777875.457875,68.601089,1,1,1,2,1,65.000000
2025-05-02 21:19:22.107,1.262348537561687,1.016598460104917,0,1.176886240414183,1.319917675145245,0.6209929389436933,0,1.207066785734456,1.189069397237285,0.7379361109471197,0,1.202990848290948,0.6543177829848945,0.4702766724679512,0,0.695621010216724,0.1456088192833759,-0.2582406235007744,0,0.1856045549837442,805.4578754578755,799.8168498168499,841.7216117216118,760.3296703296703,670.0732600732601,-0.013000,-0.007874,1.007324,0.747681,-1.667328,1.151428,418241.758242,119494652.014652,80897142.857143,69.295090,1,1,1,2,1,65.000000
2025-05-02 21:19:22.997,,,,,,,,,,,,,,,,,,,,,,,,,,,,,,,,,,,,,,,,,,/muse/elements/blink
2025-05-02 21:19:23.115,0.9746511226499948,0.6927913464342811,0,1.02081844500319,0.8707089814003044,0.4419173676666774,0,0.9029470749011435,1.053776046320466,0.6978753946469529,0,1.040168702727633,0.6781834556933261,0.4375579187870164,0,0.7291582486256669,0.2320519312383763,-0.06002486799982448,0,0.1542805948467973,821.978021978022,818.7545787545788,906.5934065934066,769.5970695970697,850.989010989011,-0.014160,-0.009155,1.009216,0.687866,-0.725250,-0.710297,423882.783883,119531721.611722,80924542.124542,69.494537,1,1,1,2,1,65.000000
2025-05-02 21:19:24.106,0.7406525974747785,0.9538427601062872,0,1.407844095719988,0.6185495789852697,0.5155396531286713,0,1.460420415119715,0.8144058493201238,0.7468064257900902,0,1.223453091307619,0.7980243470273526,0.5062348604959633,0,0.7278772248818616,0.3012804912449626,-0.02573644639284163,0,0.09671688964147451,800.2197802197802,780.0732600732601,594.3223443223443,815.1282051282052,1178.571428571429,-0.014282,-0.017273,1.010742,0.306549,-0.598145,-0.523376,421465.201465,119524468.864469,80798827.838828,69.646057,1,1,1,2,1,65.000000
2025-05-02 21:19:25.107,0.7554968447142694,0.9172845486023692,0,0.7197980330194346,0.8200045640337172,0.5816311171574987,0,0.5801807488268677,1.125777630953077,0.8058822927545539,0,0.8563485789503829,0.4352400029409813,0.4410928576041114,0,0.5709571630968798,0.2851594855442873,-0.003200030752395311,0,0.1972678864594552,761.5384615384615,773.2234432234433,854.6153846153846,817.948717948718,765.5677655677656,-0.018982,-0.009827,1.007874,0.800018,-1.734619,0.441132,425494.505495,119313333.333333,80699706.959707,71.710785,1,1,1,2,1,65.000000
2025-05-02 21:19:26.106,0.8989344818191431,0.8334743909558308,0,0.8978227163832974,0.8532582895983651,0.5829870067416427,0,0.1490028419737027,1.170645487363956,0.8721568023924147,0,0.8853038309503545,0.4540835420394191,0.489863832102361,0,0.6783725792839568,0.1679086854156386,-0.1081409934758637,0,0.261535369077665,821.978021978022,789.7435897435897,753.4798534798535,773.6263736263736,1006.520146520147,-0.048218,-0.024536,1.002380,0.717773,-0.807495,0.007477,423882.783883,119204542.124542,80640879.120879,72.522339,1,1,1,2,1,65.000000
2025-05-02 21:19:26.753,,,,,,,,,,,,,,,,,,,,,,,,,,,,,,,,,,,,,,,,,,/muse/elements/blink
2025-05-02 21:19:27.107,1.08101837336265,0.9901023736843623,0,1.148745688741577,0.6864486234349333,0.7612969003763957,0,0.4744413576831115,0.8370637768823218,0.6862052158452409,0,0.8664052239639652,0.4662187757601375,0.3224134168891374,0,0.6191606140758414,0.00188260824673573,-0.1176207255091047,0,0.3790379959195951,841.3186813186813,802.6373626373627,871.941391941392,836.0805860805862,674.9084249084249,-0.050476,0.001465,1.016235,0.456085,-0.598145,-3.768311,418241.758242,119251282.051282,80716630.036630,71.700188,1,1,1,2,1,65.000000
2025-05-02 21:19:27.776,,,,,,,,,,,,,,,,,,,,,,,,,,,,,,,,,,,,,,,,,,/muse/elements/blink
2025-05-02 21:19:28.107,1.237937963848073,1.008704325494348,0,1.1550089336413,0.5428555253420355,0.9965442792432938,0,0.5517506947857207,0.719746011737229,0.7560517246060598,0,0.7337561760894644,0.3823128519642371,0.3681164977686192,0,0.5701955475711645,0.07100835836852304,-0.1016860895015331,0,0.3209884014517341,751.4652014652015,811.9047619047619,850.5860805860806,815.1282051282052,615.2747252747253,-0.028381,-0.015991,1.006653,0.852356,1.891632,-2.594452,423076.923077,119358461.538462,80791575.091575,70.460861,1,1,1,2,1,65.000000
2025-05-02 21:19:28.392,,,,,,,,,,,,,,,,,,,,,,,,,,,,,,,,,,,,,,,,,,/muse/elements/blink
2025-05-02 21:19:29.008,,,,,,,,,,,,,,,,,,,,,,,,,,,,,,,,,,,,,,,,,,/muse/elements/blink
2025-05-02 21:19:29.107,1.237937963848073,0.9146908270258775,0,1.1550089336413,0.5428555253420355,1.155403860324006,0,0.5517506947857207,0.719746011737229,0.6715550358058563,0,0.7337561760894644,0.3823128519642371,0.516314737774881,0,0.5701955475711645,0.07100835836852304,-0.135053994635203,0,0.3209884014517341,831.6483516483516,807.0695970695971,981.941391941392,768.7912087912088,622.1245421245421,-0.023560,0.010620,1.010559,0.874786,-1.629944,-0.097198,421465.201465,119583296.703297,80848791.208791,70.472229,1,1,1,2,1,65.000000
2025-05-02 21:19:29.881,,,,,,,,,,,,,,,,,,,,,,,,,,,,,,,,,,,,,,,,,,/muse/elements/blink
2025-05-02 21:19:30.107,1.237937963848073,1.014067867474495,0,1.1550089336413,0.5428555253420355,1.212716852608202,0,0.5517506947857207,0.719746011737229,0.6482549503282355,0,0.7337561760894644,0.3823128519642371,0.5651759646387272,0,0.5701955475711645,0.07100835836852304,-0.1377973489810246,0,0.3209884014517341,816.3369963369963,799.4139194139194,818.7545787545788,815.5311355311355,826.8131868131868,-0.039795,0.000000,1.014771,1.158905,-2.863617,1.712189,419047.619048,119629230.769231,80930183.150183,70.179840,1,2,1,2,2,65.000000
2025-05-02 21:19:31.107,1.237937963848073,1.014067867474495,0,1.1550089336413,0.5428555253420355,1.212716852608202,0,0.5517506947857207,0.719746011737229,0.6482549503282355,0,0.7337561760894644,0.3823128519642371,0.5651759646387272,0,0.5701955475711645,0.07100835836852304,-0.1377973489810246,0,0.3209884014517341,796.996336996337,800.2197802197802,875.5677655677656,849.7802197802198,579.4139194139194,-0.022278,0.000793,1.008362,0.022430,-2.018738,0.074768,422271.062271,119622783.882784,80932600.732601,70.049828,1,2,1,2,2,65.000000
2025-05-02 21:19:32.107,0.7324607559665911,0.6067851777527919,0,0.407092217482022,0.6465533518619877,0.3913066243622044,0,0.5837684734595571,0.5902597197940551,0.3718404249428949,0,0.8575364788601841,0.6212717443800485,0.6051945134670451,0,0.7618165020834692,0.0816930752553285,-0.07178005249876249,0,0.1597692032891149,746.6300366300367,834.4688644688645,887.2527472527473,678.1318681318681,681.3553113553114,-0.028076,-0.003296,1.005615,-0.792542,-2.100983,-0.613098,422271.062271,119555897.435897,80920512.820513,71.245834,1,1,1,2,1,65.000000
2025-05-02 21:19:33.106,0.7324607559665911,0.6067851777527919,0,0.3597426118033978,0.6465533518619877,0.3913066243622044,0,0.5556491517457433,0.5902597197940551,0.3718404249428949,0,0.8287691403509349,0.6212717443800485,0.6051945134670451,0,0.7427215136577889,0.0816930752553285,-0.07178005249876249,0,0.1729195308132838,806.2637362637363,781.6849816849817,881.6117216117217,796.996336996337,661.2087912087912,-0.020752,-0.015259,1.010071,1.024323,-2.923431,0.157013,423882.783883,119094945.054945,80669084.249084,73.499001,1,1,1,2,1,65.000000
2025-05-02 21:19:34.106,0.9786334373137272,0.6831649102179281,0,1.025093310669608,1.32206299612405,0.5530240531282706,0,1.222915529328836,1.10901437194203,0.5004174513388008,0,0.7552317395651763,0.6768478158872866,0.4298383367958507,0,0.4030330759145552,0.2304288431558295,0.2283604500629286,0,0.3366179063447293,767.985347985348,812.7106227106227,869.5238095238095,833.2600732600733,610.4395604395604,-0.017639,-0.000916,1.004700,1.368256,-1.487885,1.749573,423882.783883,118907179.487179,80626373.626374,78.563507,1,1,1,2,1,65.000000
2025-05-02 21:19:35.111,1.205474216519652,0.8646627837278432,0,1.16755329336404,1.52322108713837,0.7430556406391988,0,1.442908661888045,1.266172089595665,0.2607391121597931,0,1.218087381111409,0.7698122784509358,0.3885626139323021,0,0.5331944339996503,0.1844075530416534,0.3690067621164521,0,0.3119707105032772,899.7435897435897,770.4029304029305,863.8827838827839,781.2820512820513,975.8974358974359,-0.006836,-0.004272,1.004395,-0.545807,-3.843079,1.929016,423076.923077,119160219.780220,79645641.025641,84.279747,1,1,1,2,1,65.000000
2025-05-02 21:19:35.183,,,,,,,,,,,,,,,,,,,,,,,,,,,,,,,,,,,,,,,,,,/muse/elements/blink
2025-05-02 21:19:36.107,1.394229648440926,0.9496683176633329,0,1.295163999452059,1.676924150579117,0.8251281243805976,0,1.559177192628665,1.194631700476361,0.6507792616428254,0,1.157228003731837,0.6540763179016014,0.4261593573686606,0,0.5365665221708676,0.1197714416767295,0.4775101669524094,0,0.2652775919047917,803.040293040293,800.2197802197802,860.2564102564103,810.6959706959707,664.0293040293041,-0.018188,-0.007080,1.010010,0.800018,-1.958923,-0.089722,421465.201465,119090109.890110,80911648.351648,85.733154,1,1,1,2,1,65.000000
2025-05-02 21:19:37.108,0.3626362431294156,0.4306796898730912,0,0.7715546817942236,0.6093024211275549,0.4759368690695521,0,0.3079896959657175,0.7950411056173918,0.6300146143718773,0,0.9480143642624673,0.5457411263913318,0.4286653888694809,0,0.4572996103093294,0.1161572296932124,-0.2227334598960411,0,0.09282895224389494,773.2234432234433,778.0586080586081,847.7655677655678,781.6849816849817,674.5054945054945,-0.024719,-0.001648,1.008667,2.183228,-1.031799,0.328979,417435.897436,119264175.824176,81054285.714286,81.739113,1,1,1,2,1,65.000000
2025-05-02 21:19:37.725,,,,,,,,,,,,,,,,,,,,,,,,,,,,,,,,,,,,,,,,,,/muse/elements/blink
2025-05-02 21:19:38.107,0.594296859747302,0.6843041301138626,0,0.8768023422022133,0.6007517288987296,0.4834266936430157,0,0.2272833778123478,0.8160517640821872,0.8309545773813413,0,0.8290842006849632,0.6113901862509369,0.4691559456549071,0,0.5557929267406724,0.1218274570288079,-0.02122259265499362,0,0.09421153192453523,828.4249084249085,801.8315018315019,902.967032967033,761.5384615384615,697.8754578754579,-0.016602,-0.008545,1.000854,1.046753,-2.272949,-0.171967,422271.062271,119481758.241758,81138901.098901,81.288918,1,1,1,2,1,65.000000
2025-05-02 21:19:39.107,1.095077763727312,0.9322287285764587,0,1.130298117265514,0.7021597420497464,0.6823715202722831,0,0.7193688139040822,0.832717428658061,0.897113293200487,0,0.6908806052159623,0.7786256720285017,0.4428242427097286,0,0.8084338097411641,0.3574417154045506,0.1224984560271506,0,-0.02854880916617093,765.1648351648352,795.3846153846154,718.8278388278388,831.2454212454213,775.2380952380953,-0.023193,-0.005920,1.007141,0.471039,-2.138367,-0.216827,421465.201465,119094139.194139,80923736.263736,82.688248,1,1,1,2,1,65.000000
2025-05-02 21:19:40.107,0.9412738029079741,0.9034741753806783,0,1.04989648924879,0.6622652930197956,0.6102281205532244,0,0.6811102004018672,0.968796647196967,0.8464682003582126,0,0.9657875527436256,0.6859173667080811,0.4373177035979819,0,0.6535982845694116,0.2256109535501094,0.06315507862631363,0,0.07900409089380404,745.8241758241759,782.4908424908425,838.901098901099,792.5641025641025,726.0805860805862,-0.014282,-0.005066,1.003906,1.996307,0.074768,0.112152,421465.201465,118883003.663004,80792380.952381,83.886047,1,1,1,2,1,65.000000
2025-05-02 21:19:40.237,,,,,,,,,,,,,,,,,,,,,,,,,,,,,,,,,,,,,,,,,,/muse/elements/blink
2025-05-02 21:19:41.107,0.6375274194782307,0.8914744202407434,0,0.6804129392754694,0.5396662987727096,0.7824713587816172,0,0.6372240911059692,0.7590577227131227,1.106849190697293,0,0.8480892913144423,0.5546841994787339,0.3235580961826965,0,0.5051784823205921,0.05336999629441564,-0.008696887399498735,0,0.1173063199646619,817.948717948718,810.6959706959707,907.8021978021978,774.0293040293041,778.4615384615385,-0.030762,-0.003113,1.010315,0.149536,-0.583191,0.261688,421465.201465,118447032.967033,80652967.032967,85.658325,1,1,1,2,1,65.000000
2025-05-02 21:19:42.107,1.326642993235789,0.5534520261851698,0,0.6967427711435421,0.6639035417376968,0.6418213324518622,0,0.7405436195809778,0.9878979963555161,1.068387828215642,0,0.8658531592648486,0.5154065067265797,0.2856604148061022,0,0.5727622504137548,-0.2135609724188207,0.01351057824707539,0,0.1327155055838999,828.021978021978,806.2637362637363,823.992673992674,815.1282051282052,754.2857142857143,-0.034363,0.002808,1.006775,0.710297,-1.943970,-0.224304,422271.062271,118730695.970696,80799633.699634,87.261940,1,1,1,2,1,65.000000
2025-05-02 21:19:43.107,1.231162815472523,0.5130747893112938,0,0.6688633169131946,0.7229289657705,0.638222495065991,0,0.7244681408372197,1.223469761888831,0.8792660347537404,0,1.105919571752221,0.5376230779032543,0.3751431504843872,0,0.5996782209330128,0.09447688530710217,0.0009674329582390269,0,0.2302546022619604,768.7912087912088,782.0879120879121,853.0036630036631,769.5970695970697,577.8021978021978,-0.031982,-0.002075,1.002808,0.201874,-1.226196,-0.508423,420659.340659,119029670.329670,80919706.959707,86.298355,1,1,1,2,1,65.000000
2025-05-02 21:19:44.111,0.6649676625336048,0.5364987625472375,0,0.711108190957171,0.914416627592911,0.6976934589562039,0,0.7936516368173672,1.326020888728973,0.8009539925186487,0,0.9925987657712035,0.5906345053811163,0.5460940758253248,0,0.5978004138733654,0.1833758901222117,0.0510161433985599,0,0.248892882848827,850.1831501831502,802.6373626373627,804.2490842490843,779.6703296703297,914.2490842490843,-0.032227,-0.009094,1.006958,-0.299072,-1.278534,-0.665436,422271.062271,119175531.135531,81138901.098901,83.854805,1,1,1,2,1,65.000000
2025-05-02 21:19:45.115,1.097393712053641,0.2387404763804448,0,0.5982853592194053,1.034809099597572,0.5614936397265369,0,0.8141278899642919,1.284866025457142,0.7274797478188846,0,0.7827779333749761,0.6234649661666475,0.5175700117176204,0,0.5490857685846513,0.09763520865054005,0.06450753273608403,0,0.144248860859586,770.8058608058608,813.1135531135532,576.996336996337,829.2307692307693,965.0183150183151,-0.021973,-0.007935,1.002197,-0.142059,-0.000000,-0.762634,422271.062271,119352820.512821,81101025.641026,81.167046,1,1,1,2,1,65.000000
2025-05-02 21:19:45.438,,,,,,,,,,,,,,,,,,,,,,,,,,,,,,,,,,,,,,,,,,/muse/elements/blink
2025-05-02 21:19:46.111,1.271681834137194,0.4745419124569815,0,0.4063475432921581,0.9017185635182582,0.486970356858306,0,0.6987975999228321,0.7833722028959157,0.574991982069035,0,0.7124577983137443,0.6266378447282309,0.6011779831757005,0,0.5777520662543491,0.01541247046815004,0.08033210432681941,0,0.0631463190817014,790.1465201465202,805.4578754578755,870.7326007326008,789.7435897435897,649.5238095238095,-0.015564,-0.013916,1.012024,0.456085,-1.218719,-0.665436,421465.201465,118766153.846154,80817362.637363,80.364883,1,1,1,2,1,65.000000
2025-05-02 21:19:46.762,,,,,,,,,,,,,,,,,,,,,,,,,,,,,,,,,,,,,,,,,,/muse/elements/blink
2025-05-02 21:19:47.106,1.308831245434963,0.9584428540452108,0,0.4568009482717751,0.7932621785250581,0.9310400344523433,0,0.5177209075643511,0.4845879915681194,0.7011872392365108,0,0.5542534853212052,0.6262172892457186,0.4885561077889138,0,0.5208993640109947,0.01085217150883177,-0.06942395030015219,0,0.009223320695699363,826.4102564102565,788.1318681318681,736.959706959707,780.4761904761905,990.4029304029305,-0.018005,-0.007141,1.005676,1.435547,-2.400055,0.927124,423076.923077,118447032.967033,80758534.798535,83.023010,1,1,1,2,1,65.000000
2025-05-02 21:19:48.106,1.050178508887426,1.290261035260184,0,0.4568009482717751,1.270555151221577,1.091339061889422,0,0.5177209075643511,1.09077909065541,0.8079173671531332,0,0.5542534853212052,0.72791856460527,0.5113477778809893,0,0.5208993640109947,0.3086601844437962,-0.1077636418872698,0,0.009223320695699363,864.6886446886447,786.1172161172161,950.5128205128206,832.8571428571429,618.4981684981685,-0.001404,0.002747,1.009338,0.396271,-1.854248,0.022430,423076.923077,118560659.340659,80929377.289377,85.132797,1,2,1,2,2,65.000000
2025-05-02 21:19:48.176,,,,,,,,,,,,,,,,,,,,,,,,,,,,,,,,,,,,,,,,,,/muse/elements/blink
2025-05-02 21:19:49.108,1.099875601117528,1.358260445096712,0,0.4568009482717751,1.343332080018155,1.076468717474971,0,0.5177209075643511,1.177302051584657,0.7894534838820774,0,0.5542534853212052,0.7305723713307611,0.5477433101787311,0,0.5208993640109947,0.3049535984452625,-0.04131092059938198,0,0.009223320695699363,776.8498168498169,785.7142857142858,793.3699633699634,778.4615384615385,671.6849816849817,-0.008850,-0.006409,1.003784,0.433655,-2.220612,-0.067291,423076.923077,118878974.358974,81144542.124542,82.557152,1,1,1,2,1,65.000000
2025-05-02 21:19:49.618,,,,,,,,,,,,,,,,,,,,,,,,,,,,,,,,,,,,,,,,,,/muse/elements/blink
2025-05-02 21:19:50.107,1.079332725605031,0.8492737413570138,0,0.4568009482717751,1.225633862975993,0.5286186120208635,0,0.5177209075643511,1.158917417582809,0.603880201486795,0,0.5542534853212052,0.5993346436423579,0.4066683472977553,0,0.5208993640109947,0.2494591571947495,-0.2256394054176277,0,0.009223320695699363,817.948717948718,805.4578754578755,914.6520146520147,761.1355311355312,645.8974358974359,-0.003052,0.000977,1.005005,1.248627,-2.758942,0.785065,426300.366300,119160219.780220,81276703.296703,77.826729,1,1,1,2,1,65.000000
2025-05-02 21:19:51.107,0.5301129348739988,0.7497714223247853,0,0.7878530271754233,0.3816853855764698,0.489142268830106,0,0.4229557889301459,0.8634682754580592,0.8208502164120245,0,0.6279960746402838,0.4105143659102787,0.4461447008558196,0,0.5772103511355061,-0.05917490915393904,-0.1491196846631831,0,0.250071688716706,825.6043956043957,796.996336996337,766.3736263736264,797.3992673992674,895.7142857142858,0.003479,-0.007385,1.007202,0.059814,-2.751465,-0.314026,426300.366300,119336703.296703,81292820.512821,75.630188,1,1,1,2,1,65.000000
2025-05-02 21:19:52.107,0.9345116482174203,0.6449399415713888,0,0.8007905181371567,0.5383654789341372,0.3795324169254191,0,0.4924961347688485,1.064561760737722,0.816666705509619,0,0.7871299426230703,0.52231534385615,0.3742535315550092,0,0.568472631459698,-0.02799252717322349,-0.06848226271272639,0,0.1058923125730357,801.025641025641,801.8315018315019,950.1098901098901,842.9304029304029,620.9157509157509,-0.006531,-0.000916,1.004150,0.306549,-0.388794,0.089722,423882.783883,119247252.747253,81245274.725275,73.826561,1,1,1,2,1,65.000000
2025-05-02 21:19:53.108,0.8490819459596299,0.6550422965106983,0,0.7681033567099049,0.6112966691147503,0.4326483535363551,0,0.7496547648765066,1.008568265647899,0.6763309583159233,0,0.7805268880986423,0.6095603989467981,0.3856958332911456,0,0.5407437202384199,0.04705156073637314,-0.09199297754963504,0,0.05149285039238939,796.1904761904763,787.7289377289378,865.0915750915751,749.8534798534798,737.3626373626374,-0.002441,0.001160,1.002441,0.142059,-2.676697,-0.000000,424688.644689,119155384.615385,81107472.527473,72.296844,1,1,1,2,1,65.000000
2025-05-02 21:19:54.107,0.88978507331431,0.4869521275056772,0,0.7679672164912558,0.7523813087229774,0.4123472446169149,0,0.700500376678052,1.044709262274596,1.03005053549718,0,1.051243468656174,0.6510813501917497,0.434570617745643,0,0.6289757243255102,0.06154845490191316,-0.2063612990605348,0,0.08972122724980076,821.978021978022,796.996336996337,915.0549450549451,803.040293040293,586.6666666666666,0.007751,-0.006592,1.009155,-0.082245,0.291595,-0.074768,427106.227106,119149743.589744,81171941.391941,72.196213,1,1,1,2,1,65.000000
2025-05-02 21:19:55.107,0.9745980405154289,0.381156027179371,0,0.6217864156402191,0.7679353435561542,0.4820334067491584,0,0.625400832374516,1.023197140255121,0.9969016405191743,0,1.04854688197231,0.5591552432957835,0.5853137017759963,0,0.6259055484975998,-0.07410511602444647,-0.1057799530934987,0,0.06663323138880335,788.5347985347986,805.8608058608058,941.2454212454213,821.5750915750916,724.8717948717949,-0.001282,-0.004822,1.014771,1.375732,-2.183228,1.644897,423076.923077,119177142.857143,81058315.018315,71.624573,1,1,1,2,1,65.000000
2025-05-02 21:19:56.107,0.9406932664353158,0.9973706378624424,0,1.149400745954262,0.7254748530022842,0.7884886857684532,0,0.6904931141543424,1.241486408976417,1.123191006112299,0,1.093270021590157,0.7077699654523165,0.7789608145783987,0,0.7720100907454184,-0.05963817061711517,0.08987236352602272,0,0.12910511497824,815.1282051282052,789.3406593406594,700.2930402930403,757.5091575091575,1050.03663003663,0.001587,-0.011414,1.003479,-0.575714,-2.347717,-1.689758,425494.505495,119119120.879121,81051062.271062,71.759033,1,1,1,2,1,65.000000
2025-05-02 21:19:57.107,0.9542986095832728,1.034561318981156,0,1.18487609348721,0.665582879105847,0.9499467060232006,0,0.9051291679158916,1.250562208750995,1.29189308229772,0,1.302146097936183,0.901608379544051,0.7305006985471285,0,1.004564109266264,0.05110885693819218,0.09466467435186578,0,0.1484859962684736,833.6630036630037,808.2783882783883,886.8498168498169,811.9047619047619,649.5238095238095,-0.010376,-0.000427,1.007996,0.321503,-0.814972,-0.441132,425494.505495,119194871.794872,80981758.241758,72.055794,1,1,1,2,1,65.000000
2025-05-02 21:19:58.107,0.9722233998840124,0.8349253163016856,0,0.8358377212023743,0.9660078866108295,0.9049955035942183,0,1.076128909921479,1.063442384377118,1.051696956663494,0,1.230381498968275,0.7391354189012996,0.7117402674057722,0,0.9646521871369653,0.2036988061155582,0.07432552443337345,0,0.3507232749540651,802.6373626373627,815.934065934066,916.2637362637363,851.3919413919414,799.4139194139194,-0.005920,-0.000732,1.006592,0.650482,-0.358887,0.328979,422271.062271,119270622.710623,81031721.611722,72.059685,1,1,1,2,1,65.000000
2025-05-02 21:19:59.047,,,,,,,,,,,,,,,,,,,,,,,,,,,,,,,,,,,,,,,,,,/muse/elements/blink
2025-05-02 21:19:59.107,1.046845861959133,0.6682252282885751,0,1.130466025050829,0.8228520573278548,0.4510515059985191,0,0.8254603699766875,0.9341921882326779,0.875108549143229,0,0.9815706629962396,0.6103157096657033,0.5371829487329699,0,0.6490048382583028,0.1139210138354321,-0.07863154393304915,0,0.2487336716552097,839.3040293040293,800.6227106227107,681.7582417582418,791.7582417582418,1098.388278388278,0.000610,-0.009094,1.009399,1.031799,-0.710297,0.463562,426300.366300,119351208.791209,81063150.183150,72.584885,1,1,1,2,1,65.000000
2025-05-02 21:20:00.107,1.292050464670157,0.8268248958171553,0,1.168271195798958,1.277704894420342,0.4854684688832309,0,0.9273096219300551,1.351600777330034,0.8337651612973221,0,1.041159611013805,0.5974441027228304,0.2846029271720245,0,0.7027767954425105,0.2304557453486901,-0.05402449748477928,0,0.1525976911053352,828.8278388278388,802.2344322344322,897.3260073260074,807.8754578754579,639.4505494505495,0.005310,-0.004456,0.998718,1.241150,-1.428070,0.740204,426300.366300,119138461.538462,81089743.589744,72.631676,1,1,1,2,1,65.000000
2025-05-02 21:20:01.114,1.448478059192637,0.597176901495341,0,1.213504221543769,1.536994028479983,0.4391217372468899,0,0.6914926943187683,1.349690272938362,0.6029445935170696,0,0.795631968996843,0.6744796927787043,0.2545495729296522,0,0.8188491556750084,0.3589535912084444,0.005847014887692544,0,0.1958456074795343,780.8791208791209,786.9230769230769,917.0695970695971,766.3736263736264,563.2967032967033,0.007812,-0.002441,1.000793,0.164490,-0.029907,-0.725250,424688.644689,118942637.362637,81053479.853480,72.817513,1,1,1,2,1,65.000000
2025-05-02 21:20:02.106,1.448478059192637,0.569433578205831,0,1.094525193128252,1.536994028479983,0.5759876843460745,0,0.8891147510457496,1.349690272938362,0.5969696959014849,0,0.9331484389916436,0.6744796927787043,0.2551143361079827,0,0.5460472158532547,0.3589535912084444,-0.1375769264427186,0,0.2531879508808723,842.1245421245421,800.6227106227107,962.1978021978023,771.6117216117216,577.8021978021978,0.001282,0.004883,1.011169,1.607513,-1.697235,1.046753,423882.783883,118925714.285714,81142124.542125,72.720650,1,1,1,2,1,65.000000
2025-05-02 21:20:03.109,1.448478059192637,0.7559477570198353,0,1.240976984453553,1.536994028479983,0.7984564091661567,0,0.9773631823608677,1.349690272938362,0.5933070332431242,0,0.932828551643492,0.6744796927787043,0.2955508959211293,0,0.5457516522035735,0.3589535912084444,-0.03352342268725024,0,0.2177649977983565,756.3003663003664,823.992673992674,756.7032967032967,763.956043956044,799.4139194139194,-0.001892,-0.003784,1.005554,-0.171967,-1.128998,-1.114044,426300.366300,119038534.798535,81201758.241758,73.155922,1,1,1,2,1,65.000000
2025-05-02 21:20:03.312,,,,,,,,,,,,,,,,,,,,,,,,,,,,,,,,,,,,,,,,,,/muse/elements/blink
2025-05-02 21:20:03.739,,,,,,,,,,,,,,,,,,,,,,,,,,,,,,,,,,,,,,,,,,/muse/elements/blink
2025-05-02 21:20:04.108,1.448478059192637,0.6689416452562518,0,1.240976984453553,1.536994028479983,0.6587775792624575,0,0.9773631823608677,1.349690272938362,0.4531357285667414,0,0.932828551643492,0.6744796927787043,0.3805681877029172,0,0.5457516522035735,0.3589535912084444,-0.07007932791399507,0,0.2177649977983565,795.3846153846154,805.4578754578755,915.8608058608058,778.4615384615385,551.2087912087912,-0.006775,0.006226,1.001526,-0.134583,-0.897217,0.314026,423882.783883,119230329.670330,81524102.564103,72.259590,1,1,1,2,1,65.000000
2025-05-02 21:20:05.109,1.448478059192637,1.068689509747323,0,1.240976984453553,1.536994028479983,1.040502536131159,0,0.9773631823608677,1.349690272938362,0.7915871115838985,0,0.932828551643492,0.6744796927787043,0.532108046437098,0,0.5457516522035735,0.3589535912084444,0.2108442528837323,0,0.2177649977983565,834.8717948717949,815.5311355311355,946.4835164835165,772.014652014652,603.992673992674,-0.003662,-0.005554,1.011475,1.360779,-2.572021,0.859833,425494.505495,119287545.787546,81458021.978022,71.801994,1,2,1,2,2,65.000000
2025-05-02 21:20:06.106,1.125273901291707,0.8685494703248934,0,1.240976984453553,0.8083036133324292,0.7840822360001238,0,0.9773631823608677,1.17271764345239,0.9652743296128214,0,0.932828551643492,0.7217112464770304,0.4011768020578296,0,0.5457516522035735,0.3582495070640578,0.1442607268180561,0,0.2177649977983565,813.5164835164835,797.3992673992674,860.6593406593407,805.0549450549451,690.2197802197802,-0.005127,-0.010620,1.004272,-0.672913,-1.570129,-1.540222,426300.366300,119071575.091575,81390329.670330,72.369804,1,1,1,2,1,65.000000
2025-05-02 21:20:07.108,1.017836207629027,0.5223973938268565,0,0.9049163109197064,0.7733924229131072,0.33624218290397,0,0.7919021119869589,1.177949659186819,0.6118377164880817,0,0.8757444867921582,0.6529850719087795,0.468021639254825,0,0.5343376672229639,0.3887194078681621,0.09978341924482817,0,0.1933969420053405,771.6117216117216,782.0879120879121,919.0842490842491,834.4688644688645,708.7545787545788,0.002869,-0.021057,0.990234,5.188904,-2.400055,1.854248,420659.340659,118953919.413919,81279120.879121,71.088417,1,1,1,2,1,65.000000
2025-05-02 21:20:08.094,,,,,,,,,,,,,,,,,,,,,,,,,,,,,,,,,,,,,,,,,,/muse/elements/blink
2025-05-02 21:20:08.106,1.040457470791621,0.7664875732177474,0,1.015154822652254,1.053826010389349,0.720136314359893,0,0.9736136118956905,1.371841111135263,0.7899577600119942,0,1.274443733263363,0.6147508944127363,0.4254806681005381,0,0.4844804434478221,0.2470099223659245,-0.06037065850432614,0,0.1628357493282367,839.7069597069598,796.996336996337,881.6117216117217,792.1611721611722,869.92673992674,-0.031311,-0.034729,1.002930,4.553375,7.020721,5.360870,423076.923077,118913626.373626,81210622.710623,70.048378,1,1,1,2,1,65.000000
2025-05-02 21:20:09.106,1.37908612188424,0.8319845869598745,0,1.155060697844275,1.195088323677648,0.6665482225327702,0,0.9591190448549446,1.25264653265097,0.7871477108264253,0,1.168773701778758,0.5914332985194125,0.3687594670225878,0,0.446733499213142,0.3708705597859943,-0.1435997088531812,0,0.2175240859361882,826.4102564102565,781.6849816849817,892.4908424908425,813.919413919414,664.0293040293041,-0.004883,-0.001465,1.006775,0.635529,-2.160797,-0.508423,423076.923077,118928131.868132,81267032.967033,70.090233,1,1,1,2,1,65.000000
