TimeStamp,Delta_TP9,Delta_AF7,Delta_AF8,Delta_TP10,Theta_TP9,Theta_AF7,Theta_AF8,Theta_TP10,Alpha_TP9,Alpha_AF7,Alpha_AF8,Alpha_TP10,Beta_TP9,Beta_AF7,Beta_AF8,Beta_TP10,Gamma_TP9,Gamma_AF7,Gamma_AF8,Gamma_TP10,RAW_TP9,RAW_AF7,RAW_AF8,RAW_TP10,AUX_RIGHT,Accelerometer_X,Accelerometer_Y,Accelerometer_Z,Gyro_X,Gyro_Y,Gyro_Z,PPG_Ambient,PPG_IR,PPG_Red,Heart_Rate,HeadBandOn,HSI_TP9,HSI_AF7,HSI_AF8,HSI_TP10,Battery,Elements
2025-05-02 21:35:43.001,,,,,,,,,,,,,,,,,,,,,,,,,,,,,,,,,,,,,,,,,,/muse/event/connected Muse-1C98
2025-05-02 21:35:43.071,,,,,,,,,,,,,,,,,,,,,,,,,,,,,,,,,,,,,,,,,,/muse/elements/blink
2025-05-02 21:35:44.007,2.141594123624335,0.8549320224787301,0,0.5064490389487351,1.626433390445008,0.4027454507185396,0,0.4023726883111442,1.359064375965799,0.4000552463267273,0,0.2938191389505864,1.38374265808283,0.3203788893647995,0,0.3254112893868739,0.3891014447134593,-0.2027250560800099,0,-0.3131434703861514,680.952380952381,784.9084249084249,833.6630036630037,676.1172161172161,667.6556776556777,0.071777,0.057861,1.003479,0.291595,-3.962708,0.119629,407765.567766,95938534.798535,66730915.750916,122.156136,1,2,1,1,2,80.000000
2025-05-02 21:35:44.235,,,,,,,,,,,,,,,,,,,,,,,,,,,,,,,,,,,,,,,,,,/muse/elements/blink
2025-05-02 21:35:45.005,2.141594123624335,0.6464479462521773,0,0.5064490389487351,1.626433390445008,-0.03319143083693803,0,0.4023726883111442,1.359064375965799,0.3062414613778707,0,0.2938191389505864,1.38374265808283,0.05159593537881136,0,0.3254112893868739,0.3891014447134593,-0.3022163305289967,0,-0.3131434703861514,772.014652014652,792.967032967033,1006.923076923077,797.3992673992674,811.0989010989011,0.117065,0.060303,0.991211,-0.127106,-3.633728,-0.336456,406153.846154,96115824.175824,64292380.952381,122.156136,1,2,1,1,2,80.000000
2025-05-02 21:35:46.002,2.141594123624335,0.4528028641243477,0,1.085723782342918,1.626433390445008,-0.1609932801778495,0,0.4415563848288556,1.359064375965799,0.4118139391872699,0,0.5466233696143585,1.38374265808283,0.0179052531378229,0,0.8121760592876001,0.3891014447134593,-0.1917939467125411,0,0.0396744149832591,733.7362637362637,765.1648351648352,799.8168498168499,826.8131868131868,909.0109890109891,0.128723,0.047363,0.994324,0.657959,-1.742096,-0.553284,410183.150183,95982857.142857,63928131.868132,122.156136,1,1,1,1,1,80.000000
2025-05-02 21:35:46.243,,,,,,,,,,,,,,,,,,,,,,,,,,,,,,,,,,,,,,,,,,/muse/elements/blink
2025-05-02 21:35:46.988,,,,,,,,,,,,,,,,,,,,,,,,,,,,,,,,,,,,,,,,,,/muse/elements/blink
2025-05-02 21:35:47.004,1.429960299451197,0.5677119935674452,0,1.070290058304767,1.048794234727443,0.2751337636204428,0,0.4398352301893366,1.109130662847775,0.2788726221812506,0,0.5292301927503139,1.069595591512446,0.0003576920093528191,0,0.7691587564123447,0.7960294433776613,-0.149745238769162,0,0.03663357707595589,1143.113553113553,805.0549450549451,814.3223443223443,788.9377289377289,549.1941391941392,0.058105,0.157227,1.000122,21.084595,2.542114,65.855713,403736.263736,96693626.373626,65455238.095238,122.156136,1,1,1,4,1,80.000000
2025-05-02 21:35:48.003,1.429960299451197,0.8848993802749888,0,1.020223398164937,1.048794234727443,0.4861773075970765,0,0.4693251721594054,1.109130662847775,0.4017571287990552,0,0.4054799381873032,1.069595591512446,0.06796095281921442,0,0.7228730994345139,0.7960294433776613,-0.04630005635527832,0,0.03076329551067925,830.8424908424909,797.3992673992674,983.1501831501831,663.2234432234433,639.8534798534798,0.076355,0.093872,0.995483,0.441132,-3.267365,-1.069183,402930.402930,97474505.494505,63916849.816850,119.418602,1,1,1,2,1,80.000000
2025-05-02 21:35:48.206,,,,,,,,,,,,,,,,,,,,,,,,,,,,,,,,,,,,,,,,,,/muse/elements/blink
2025-05-02 21:35:48.206,,,,,,,,,,,,,,,,,,,,,,,,,,,,,,,,,,,,,,,,,,/muse/elements/jaw_clench
2025-05-02 21:35:48.404,,,,,,,,,,,,,,,,,,,,,,,,,,,,,,,,,,,,,,,,,,/muse/elements/jaw_clench
2025-05-02 21:35:49.006,1.429960299451197,0.7913700283167612,0,1.020223398164937,1.048794234727443,0.4801034215544932,0,0.4693251721594054,1.109130662847775,0.3921267178587758,0,0.4054799381873032,1.069595591512446,0.3011937933807856,0,0.7228730994345139,0.7960294433776613,0.2539400481539769,0,0.03076329551067925,698.2783882783883,776.4468864468864,681.3553113553114,792.967032967033,1106.849816849817,0.083923,0.103516,0.993896,-0.897217,-0.441132,-0.568237,399706.959707,97688058.608059,67291794.871795,110.839760,1,2,1,2,2,80.000000
2025-05-02 21:35:50.001,1.429960299451197,0.5339902769370931,0,1.245036961380111,1.048794234727443,0.3144217620073129,0,0.8820145821398725,1.109130662847775,0.1027585098925687,0,1.139751479251006,1.069595591512446,0.3341780678714174,0,0.6959844529105159,0.7960294433776613,0.2571259947048667,0,0.2711936013464172,751.8681318681319,792.967032967033,940.4395604395605,765.5677655677656,604.7985347985348,0.076599,0.087158,1.005798,0.194397,-1.338348,-0.829926,399706.959707,98074065.934066,68249963.369963,111.082680,1,1,1,1,1,80.000000
2025-05-02 21:35:50.412,,,,,,,,,,,,,,,,,,,,,,,,,,,,,,,,,,,,,,,,,,/muse/elements/blink
2025-05-02 21:35:51.001,1.429960299451197,0.06275917430256177,0,1.245036961380111,1.048794234727443,-0.08316277163710226,0,0.8820145821398725,1.109130662847775,0.2112514836571096,0,1.139751479251006,1.069595591512446,0.08631954100743633,0,0.6959844529105159,0.7960294433776613,0.03493300181037329,0,0.2711936013464172,781.6849816849817,794.981684981685,884.8351648351648,777.2527472527473,669.6703296703297,0.078308,0.077332,0.995239,-0.216827,-1.936493,0.590668,398901.098901,98535018.315018,68369230.769231,112.428131,1,1,1,1,1,80.000000
2025-05-02 21:35:51.727,,,,,,,,,,,,,,,,,,,,,,,,,,,,,,,,,,,,,,,,,,/muse/elements/blink
2025-05-02 21:35:52.001,1.429960299451197,0.0755369984077596,0,1.170662514575171,1.048794234727443,-0.0999563672494324,0,0.8090199705103722,1.109130662847775,0.3029615844824232,0,1.133099178874521,1.069595591512446,0.07039315664015587,0,0.6641380187526101,0.7960294433776613,-0.05155462853754781,0,0.2932751405810927,810.2930402930403,810.2930402930403,541.1355311355311,821.978021978022,1208.791208791209,0.077759,0.072266,1.000122,-0.052338,-1.510315,-0.142059,402930.402930,98633333.333333,68152454.212454,112.428131,1,1,1,1,1,80.000000
2025-05-02 21:35:53.001,1.429960299451197,0.1195362652171693,0,1.170662514575171,1.048794234727443,-0.1853625389498486,0,0.8090199705103722,1.109130662847775,0.2405093927289156,0,1.133099178874521,1.069595591512446,0.100256494123634,0,0.6641380187526101,0.7960294433776613,-0.104380230141121,0,0.2932751405810927,859.8534798534798,774.4322344322345,865.8974358974359,807.8754578754579,544.7619047619048,0.067444,0.080261,0.991699,-2.287903,15.035858,8.426361,395677.655678,98105494.505495,60368644.688645,112.428131,1,2,1,2,2,80.000000
2025-05-02 21:35:53.377,,,,,,,,,,,,,,,,,,,,,,,,,,,,,,,,,,,,,,,,,,/muse/elements/blink
2025-05-02 21:35:53.377,,,,,,,,,,,,,,,,,,,,,,,,,,,,,,,,,,,,,,,,,,/muse/elements/jaw_clench
2025-05-02 21:35:53.701,,,,,,,,,,,,,,,,,,,,,,,,,,,,,,,,,,,,,,,,,,/muse/elements/jaw_clench
2025-05-02 21:35:53.894,,,,,,,,,,,,,,,,,,,,,,,,,,,,,,,,,,,,,,,,,,/muse/elements/jaw_clench
2025-05-02 21:35:53.980,,,,,,,,,,,,,,,,,,,,,,,,,,,,,,,,,,,,,,,,,,/muse/elements/blink
2025-05-02 21:35:54.001,1.429960299451197,-0.5474039015981508,0,1.170662514575171,1.048794234727443,-0.479351733162791,0,0.8090199705103722,1.109130662847775,-0.09160824675605034,0,1.133099178874521,1.069595591512446,-0.1596156836248737,0,0.6641380187526101,0.7960294433776613,-0.1663551574551573,0,0.2932751405810927,998.0586080586081,830.4395604395604,926.3369963369963,864.6886446886447,661.2087912087912,0.052490,0.091309,1.002747,0.657959,7.648773,11.424561,388424.908425,94885274.725275,54797728.937729,115.059471,1,2,1,2,2,80.000000
2025-05-02 21:35:54.300,,,,,,,,,,,,,,,,,,,,,,,,,,,,,,,,,,,,,,,,,,/muse/elements/blink
2025-05-02 21:35:54.687,,,,,,,,,,,,,,,,,,,,,,,,,,,,,,,,,,,,,,,,,,/muse/elements/jaw_clench
2025-05-02 21:35:54.794,,,,,,,,,,,,,,,,,,,,,,,,,,,,,,,,,,,,,,,,,,/muse/elements/blink
2025-05-02 21:35:55.001,1.429960299451197,-0.5872501776554766,0,1.170662514575171,1.048794234727443,-0.4802637545554971,0,0.8090199705103722,1.109130662847775,-0.2175290158881919,0,1.133099178874521,1.069595591512446,-0.2044015908510101,0,0.6641380187526101,0.7960294433776613,-0.1691374846733454,0,0.2932751405810927,755.8974358974359,855.0183150183151,661.2087912087912,878.3882783882784,774.8351648351648,0.020020,0.097107,1.007751,1.001892,-1.353302,-2.796326,398095.238095,91779487.179487,60253406.593407,119.049683,1,2,1,4,2,80.000000
2025-05-02 21:35:55.799,,,,,,,,,,,,,,,,,,,,,,,,,,,,,,,,,,,,,,,,,,/muse/elements/blink
2025-05-02 21:35:55.907,,,,,,,,,,,,,,,,,,,,,,,,,,,,,,,,,,,,,,,,,,/muse/elements/jaw_clench
2025-05-02 21:35:56.014,1.429960299451197,-0.5872501776554766,0,1.170662514575171,1.048794234727443,-0.4802637545554971,0,0.8090199705103722,1.109130662847775,-0.2175290158881919,0,1.133099178874521,1.069595591512446,-0.2044015908510101,0,0.6641380187526101,0.7960294433776613,-0.1691374846733454,0,0.2932751405810927,877.985347985348,833.6630036630037,859.4505494505495,867.1062271062272,645.0915750915751,0.042603,0.063660,1.005737,-4.889832,-7.880554,-5.360870,410183.150183,95179413.919414,66423076.923077,117.522430,1,2,1,4,2,80.000000
2025-05-02 21:35:57.000,1.429960299451197,-0.5872501776554766,0,1.170662514575171,1.048794234727443,-0.4802637545554971,0,0.8090199705103722,1.109130662847775,-0.2175290158881919,0,1.133099178874521,1.069595591512446,-0.2044015908510101,0,0.6641380187526101,0.7960294433776613,-0.1691374846733454,0,0.2932751405810927,721.6483516483516,809.8901098901099,919.0842490842491,755.8974358974359,657.5824175824176,0.075562,0.062378,1.003784,1.024323,-2.295380,-0.134583,412600.732601,103582930.402930,68591648.351648,100.493713,1,2,1,2,2,80.000000
2025-05-02 21:35:57.196,,,,,,,,,,,,,,,,,,,,,,,,,,,,,,,,,,,,,,,,,,/muse/elements/jaw_clench
2025-05-02 21:35:57.644,,,,,,,,,,,,,,,,,,,,,,,,,,,,,,,,,,,,,,,,,,/muse/elements/blink
2025-05-02 21:35:58.000,1.429960299451197,-0.5872501776554766,0,1.170662514575171,1.048794234727443,-0.4802637545554971,0,0.8090199705103722,1.109130662847775,-0.2175290158881919,0,1.133099178874521,1.069595591512446,-0.2044015908510101,0,0.6641380187526101,0.7960294433776613,-0.1691374846733454,0,0.2932751405810927,678.9377289377289,801.025641025641,680.952380952381,781.2820512820513,1063.333333333333,0.096436,0.019592,0.999268,-2.519684,4.486084,7.947845,417435.897436,103285567.765568,67275677.655678,98.712852,1,2,1,2,2,80.000000
2025-05-02 21:35:59.008,1.429960299451197,0.8589493709815214,0,1.170662514575171,1.048794234727443,0.1081837281237789,0,0.8090199705103722,1.109130662847775,0.2956951491486083,0,1.133099178874521,1.069595591512446,0.3601693651583978,0,0.6641380187526101,0.7960294433776613,0.199258170641863,0,0.2932751405810927,787.3260073260074,818.3516483516484,1395.750915750916,774.4322344322345,467.8021978021978,0.342957,0.012390,0.938049,-2.803802,-7.446899,0.695343,421465.201465,107396263.736264,72690256.410256,98.712852,1,2,1,2,2,80.000000
2025-05-02 21:36:00.004,1.429960299451197,0.8664628613055613,0,1.170662514575171,1.048794234727443,0.03148059621063895,0,0.8090199705103722,1.109130662847775,0.02184103484069219,0,1.133099178874521,1.069595591512446,0.3505761931188194,0,0.6641380187526101,0.7960294433776613,0.2932751300010598,0,0.2932751405810927,786.1172161172161,799.8168498168499,1010.549450549451,761.941391941392,623.3333333333334,0.178345,0.063904,0.997620,2.601929,4.874878,-3.170166,408571.428571,103938315.018315,64985421.245421,98.712852,1,2,1,2,2,80.000000
2025-05-02 21:36:00.865,,,,,,,,,,,,,,,,,,,,,,,,,,,,,,,,,,,,,,,,,,/muse/elements/jaw_clench
2025-05-02 21:36:01.009,1.429960299451197,0.5809371149703496,0,1.170662514575171,1.048794234727443,0.1330657185352477,0,0.8090199705103722,1.109130662847775,0.3307931255120256,0,1.133099178874521,1.069595591512446,0.1732321229670548,0,0.6641380187526101,0.7960294433776613,0.05812243281102735,0,0.2932751405810927,769.1941391941392,803.040293040293,709.5604395604396,872.3443223443223,913.8461538461539,0.156128,0.055542,0.972412,0.127106,-2.355194,3.065491,394065.934066,94478315.018315,53172307.692308,98.712852,1,2,1,4,2,80.000000
2025-05-02 21:36:01.017,,,,,,,,,,,,,,,,,,,,,,,,,,,,,,,,,,,,,,,,,,/muse/elements/blink
2025-05-02 21:36:02.001,1.429960299451197,0.5089065277857318,0,1.170662514575171,1.048794234727443,0.03299936958133464,0,0.8090199705103722,1.109130662847775,0.1854110209473244,0,1.133099178874521,1.069595591512446,0.01472213438064341,0,0.6641380187526101,0.7960294433776613,-0.152919545011802,0,0.2932751405810927,541.1355311355311,790.1465201465202,804.2490842490843,760.3296703296703,561.2820512820513,0.153931,0.041626,0.989563,-0.515900,-0.254211,1.465454,406959.706960,95117362.637363,58761758.241758,98.712852,1,2,1,2,2,80.000000
2025-05-02 21:36:02.408,,,,,,,,,,,,,,,,,,,,,,,,,,,,,,,,,,,,,,,,,,/muse/elements/blink
2025-05-02 21:36:02.601,,,,,,,,,,,,,,,,,,,,,,,,,,,,,,,,,,,,,,,,,,/muse/elements/jaw_clench
2025-05-02 21:36:02.836,,,,,,,,,,,,,,,,,,,,,,,,,,,,,,,,,,,,,,,,,,/muse/elements/blink
2025-05-02 21:36:03.001,1.429960299451197,0.6258302865051715,0,1.170662514575171,1.048794234727443,-0.02218687381986596,0,0.8090199705103722,1.109130662847775,0.06632963368396538,0,1.133099178874521,1.069595591512446,-0.05522654342313216,0,0.6641380187526101,0.7960294433776613,-0.08149014091401044,0,0.2932751405810927,712.3809523809524,799.0109890109891,962.6007326007326,792.967032967033,688.2051282051282,0.106995,0.049255,1.001038,2.250519,11.267548,-1.375732,403736.263736,97240000.000000,58909230.769231,98.712852,1,2,1,4,2,80.000000
2025-05-02 21:36:03.301,,,,,,,,,,,,,,,,,,,,,,,,,,,,,,,,,,,,,,,,,,/muse/elements/blink
2025-05-02 21:36:04.013,1.429960299451197,-0.3730412010492046,0,1.170662514575171,1.048794234727443,-0.01397546338688417,0,0.8090199705103722,1.109130662847775,0.02082434664393856,0,1.133099178874521,1.069595591512446,0.1801367312322961,0,0.6641380187526101,0.7960294433776613,-0.07620316668733904,0,0.2932751405810927,593.5164835164835,797.8021978021978,842.9304029304029,790.952380952381,719.2307692307693,0.107422,0.056091,1.010864,1.031799,-0.807495,-0.157013,404542.124542,97210183.150183,62519487.179487,98.712852,1,2,1,2,2,80.000000
2025-05-02 21:36:05.001,1.429960299451197,-0.08996605880463451,0,1.170662514575171,1.048794234727443,-0.06352620486057531,0,0.8090199705103722,1.109130662847775,0.08939050692495917,0,1.133099178874521,1.069595591512446,0.06746229648825311,0,0.6641380187526101,0.7960294433776613,-0.1626225946482741,0,0.2932751405810927,694.2490842490843,796.1904761904763,859.047619047619,756.7032967032967,620.9157509157509,0.086487,0.049438,1.000488,0.725250,-1.300964,0.897217,412600.732601,97945128.205128,64639706.959707,89.900101,1,2,1,2,2,80.000000
2025-05-02 21:36:05.572,,,,,,,,,,,,,,,,,,,,,,,,,,,,,,,,,,,,,,,,,,/muse/elements/blink
2025-05-02 21:36:06.005,1.429960299451197,0.1668208419546008,0,1.040762879906855,1.048794234727443,0.1085736750925524,0,0.7350276648001044,1.109130662847775,0.1556853140767383,0,0.9306946330919583,1.069595591512446,0.03728472377749861,0,0.772406892303949,0.7960294433776613,-0.2150416420494741,0,0.2753014477199492,692.6373626373627,799.4139194139194,917.0695970695971,795.7875457875458,763.5531135531136,0.078430,0.044434,1.003052,-0.553284,-1.016846,-0.949554,410183.150183,98000732.600733,65227179.487179,89.900101,1,1,1,2,1,80.000000
2025-05-02 21:36:07.001,1.429960299451197,0.1283647192649025,0,1.115587787047399,1.048794234727443,0.06047736338339309,0,0.7421892632057652,1.109130662847775,0.1657934393893261,0,0.7566172163277489,1.069595591512446,-0.07816675649995336,0,0.7037976987594474,0.7960294433776613,-0.4488603804708228,0,0.2219922657596732,715.6043956043957,788.5347985347986,620.1098901098901,821.5750915750916,1051.648351648352,0.076538,0.042114,1.003357,0.366364,-0.119629,0.306549,415824.175824,99340879.120879,67321611.721612,89.900101,1,1,1,2,1,80.000000
2025-05-02 21:36:08.001,1.429960299451197,0.2216123212128656,0,1.00543722514736,1.048794234727443,-0.1620824187148908,0,0.5213222288213332,1.109130662847775,0.05765044689219933,0,0.4237257158592003,1.069595591512446,-0.173667159284566,0,0.5398380729828895,0.7960294433776613,-0.3725716392982585,0,-0.1367217561669641,696.2637362637363,805.4578754578755,892.4908424908425,866.3003663003664,597.1428571428571,0.074402,0.037476,1.005981,0.785065,-1.846771,0.194397,416630.036630,100113699.633700,67728571.428571,89.900101,1,1,1,2,1,80.000000
2025-05-02 21:36:08.069,,,,,,,,,,,,,,,,,,,,,,,,,,,,,,,,,,,,,,,,,,/muse/elements/blink
2025-05-02 21:36:09.016,1.429960299451197,0.9011920669341931,0,0.8902927363588355,1.048794234727443,-0.1257324465566033,0,0.5715287508716269,1.109130662847775,0.171018534621823,0,0.1102717074783212,1.069595591512446,-0.1175873438997953,0,0.3302422373027589,0.7960294433776613,-0.409625696570083,0,-0.3467608580667493,776.8498168498169,804.2490842490843,947.2893772893773,806.6666666666667,655.1648351648352,0.070190,0.039612,1.006287,1.001892,-1.263580,0.029907,416630.036630,100481978.021978,68139560.439560,89.900101,1,1,1,2,1,80.000000
2025-05-02 21:36:10.001,1.429960299451197,0.8432693962541205,0,0.6660729733252797,1.048794234727443,-0.3528757983847037,0,0.4445829548962298,1.109130662847775,0.2242429298722389,0,0.5920999599338567,1.069595591512446,-0.1502695440147255,0,0.07839610652094277,0.7960294433776613,-0.4428250328520097,0,-0.1164142652800455,683.3699633699634,799.8168498168499,802.2344322344322,809.8901098901099,897.3260073260074,0.082214,0.035461,1.000793,0.852356,-3.117828,-0.112152,416630.036630,100584322.344322,68061391.941392,89.900101,1,1,1,2,1,80.000000
2025-05-02 21:36:10.230,,,,,,,,,,,,,,,,,,,,,,,,,,,,,,,,,,,,,,,,,,/muse/elements/blink
2025-05-02 21:36:11.001,1.429960299451197,0.2559527818482986,0,0.8078632663817035,1.048794234727443,-0.112799766076214,0,0.3862968175083369,1.109130662847775,0.2073691289212679,0,0.346037577708369,1.069595591512446,0.02117920377869241,0,0.007329264642031822,0.7960294433776613,-0.4891722247686968,0,-0.1070695654254062,707.1428571428571,803.4432234432235,919.4871794871796,816.7399267399268,469.010989010989,0.091736,0.041931,1.008545,0.672913,-2.093506,0.777588,418241.758242,100693919.413919,68096043.956044,89.900101,1,1,1,2,1,80.000000
2025-05-02 21:36:12.001,1.429960299451197,-0.01049027126681777,0,1.330328682619971,1.048794234727443,-0.105318251730043,0,1.067241353887648,1.109130662847775,0.1438696015427658,0,0.9411997556845636,1.069595591512446,0.02592365683758988,0,0.2287106066739366,0.7960294433776613,-0.5078833866325707,0,-0.07893916512560252,680.5494505494506,802.6373626373627,898.1318681318681,759.92673992674,597.1428571428571,0.086365,0.038757,1.006775,1.061707,-2.347717,-0.074768,417435.897436,100816410.256410,68457875.457875,89.900101,1,1,1,2,1,80.000000
2025-05-02 21:36:12.164,,,,,,,,,,,,,,,,,,,,,,,,,,,,,,,,,,,,,,,,,,/muse/elements/blink
2025-05-02 21:36:13.004,1.429960299451197,0.2941087733706348,0,1.360332836107781,1.048794234727443,0.08714791319524731,0,0.8937979001506826,1.109130662847775,0.1201189840105203,0,0.8936874926359083,1.069595591512446,-0.1004372982673598,0,0.1851383635671469,0.7960294433776613,-0.3925684203529602,0,-0.09760671368470773,784.1025641025641,800.2197802197802,498.021978021978,823.1868131868132,1130.21978021978,0.079895,0.035645,1.004211,0.867310,-2.287903,0.037384,416630.036630,100895384.615385,68501391.941392,89.900101,1,1,1,2,1,80.000000
2025-05-02 21:36:13.896,,,,,,,,,,,,,,,,,,,,,,,,,,,,,,,,,,,,,,,,,,/muse/elements/blink
2025-05-02 21:36:14.000,1.429960299451197,0.08827936224031996,0,0.9469895243662737,1.048794234727443,-0.129873199715457,0,0.3516702849874873,1.109130662847775,0.170495540493066,0,0.2491436888367511,1.069595591512446,-0.09547210267836824,0,0.4137762255704339,0.7960294433776613,-0.3395221611646508,0,-0.1564116785960335,787.7289377289378,797.8021978021978,881.2087912087912,798.2051282051282,473.0402930402931,0.074341,0.039490,0.998962,0.635529,-0.000000,0.919647,419853.479853,101249157.509158,68607765.567766,100.919647,1,1,1,2,1,80.000000
2025-05-02 21:36:15.008,1.429960299451197,-0.02694085900035092,0,0.9469895243662737,1.048794234727443,-0.02985609725179936,0,0.3516702849874873,1.109130662847775,0.2745357581425938,0,0.2491436888367511,1.069595591512446,-0.1057571274257194,0,0.4137762255704339,0.7960294433776613,-0.4131472173425055,0,-0.1564116785960335,803.8461538461539,802.2344322344322,888.4615384615385,823.5897435897436,762.3443223443223,0.065125,0.031128,1.004456,0.299072,-0.485992,0.142059,419047.619048,101380512.820513,68851135.531136,110.020226,1,1,1,2,1,80.000000
2025-05-02 21:36:16.006,1.429960299451197,0.04796739406578557,0,0.06535062921830083,1.048794234727443,-0.116738405946087,0,0.5199995190972767,1.109130662847775,0.2146882223688263,0,0.4984266510830164,1.069595591512446,-0.1827812276487004,0,0.0242411666130974,0.7960294433776613,-0.528629369386369,0,-0.3147104406788349,751.0622710622711,784.5054945054945,540.7326007326008,825.6043956043957,1225.311355311355,0.075317,0.034180,1.004822,0.553284,-1.854248,0.463562,417435.897436,101482051.282051,68897069.597070,117.227562,1,1,1,2,1,80.000000
2025-05-02 21:36:16.103,,,,,,,,,,,,,,,,,,,,,,,,,,,,,,,,,,,,,,,,,,/muse/elements/blink
2025-05-02 21:36:17.004,1.429960299451197,0.4840831229400985,0,0.1080912256366516,1.048794234727443,0.2154503397284833,0,0.6259817897253374,1.109130662847775,0.2726652452102897,0,0.4770358778603888,1.069595591512446,-0.2177619076589502,0,0.00829546903131272,0.7960294433776613,-0.3743447628279783,0,-0.3292307193293513,739.3772893772893,797.8021978021978,884.0293040293041,776.0439560439561,594.7252747252747,0.060425,0.028748,0.999512,0.186920,-0.912170,0.523376,417435.897436,101524761.904762,68916410.256410,120.004700,1,1,1,2,1,80.000000
2025-05-02 21:36:17.459,,,,,,,,,,,,,,,,,,,,,,,,,,,,,,,,,,,,,,,,,,/muse/elements/blink
2025-05-02 21:36:18.000,1.429960299451197,0.7569921358520411,0,0.1080912256366516,1.048794234727443,0.342812484169758,0,0.6259817897253374,1.109130662847775,0.1499337092011646,0,0.4770358778603888,1.069595591512446,-0.2216484889130257,0,0.00829546903131272,0.7960294433776613,-0.3399946298258427,0,-0.3292307193293513,682.967032967033,792.5641025641025,1007.326007326007,800.6227106227107,554.8351648351648,0.068298,0.032593,1.006348,0.209351,-0.822449,-0.800018,419047.619048,101574725.274725,68985714.285714,119.428192,1,1,1,2,1,80.000000
2025-05-02 21:36:18.435,,,,,,,,,,,,,,,,,,,,,,,,,,,,,,,,,,,,,,,,,,/muse/elements/blink
2025-05-02 21:36:19.000,1.429960299451197,-0.05721964726918681,0,0.1080912256366516,1.048794234727443,-0.5073297841990303,0,0.6259817897253374,1.109130662847775,0.2286880734598724,0,0.4770358778603888,1.069595591512446,0.004267163836305847,0,0.00829546903131272,0.7960294433776613,-0.3193515917933599,0,-0.3292307193293513,716.007326007326,787.3260073260074,830.8424908424909,814.7252747252747,729.7069597069598,0.055725,0.031128,1.005249,0.231781,-1.487885,-0.747681,417435.897436,102158974.358974,68916410.256410,120.036560,1,2,1,2,2,80.000000
2025-05-02 21:36:19.650,,,,,,,,,,,,,,,,,,,,,,,,,,,,,,,,,,,,,,,,,,/muse/elements/blink
2025-05-02 21:36:20.000,1.429960299451197,-0.03317119933104887,0,0.1080912256366516,1.048794234727443,-0.09506904168713681,0,0.6259817897253374,1.109130662847775,0.2967031114152891,0,0.4770358778603888,1.069595591512446,-0.1037767853817791,0,0.00829546903131272,0.7960294433776613,-0.4362822851842837,0,-0.3292307193293513,740.989010989011,794.981684981685,919.8901098901099,811.0989010989011,489.96336996337,0.055969,0.030090,1.004028,0.530853,-2.033691,0.500946,417435.897436,102354798.534799,68885787.545788,121.407181,1,2,1,2,2,80.000000
2025-05-02 21:36:20.795,,,,,,,,,,,,,,,,,,,,,,,,,,,,,,,,,,,,,,,,,,/muse/elements/blink
2025-05-02 21:36:21.001,1.429960299451197,0.1553296431642566,0,0.1080912256366516,1.048794234727443,0.09795395110268819,0,0.6259817897253374,1.109130662847775,0.2024508748743309,0,0.4770358778603888,1.069595591512446,-0.1968793780173841,0,0.00829546903131272,0.7960294433776613,-0.4750778921338714,0,-0.3292307193293513,817.5457875457876,796.1904761904763,903.7728937728938,796.5934065934066,682.1611721611722,0.057251,0.022278,0.999695,0.388794,-1.921539,-0.014954,419047.619048,102633626.373626,68811648.351648,121.331429,1,2,1,2,2,80.000000
2025-05-02 21:36:22.000,1.429960299451197,0.4779085996304011,0,0.1080912256366516,1.048794234727443,0.1363675944737663,0,0.6259817897253374,1.109130662847775,0.2548895277939194,0,0.4770358778603888,1.069595591512446,-0.2545314975290427,0,0.00829546903131272,0.7960294433776613,-0.477100937495702,0,-0.3292307193293513,770.4029304029305,796.5934065934066,823.992673992674,807.8754578754579,715.6043956043957,0.050476,0.022034,0.998596,0.104675,-1.293488,-0.082245,418241.758242,102794798.534799,68764102.564103,123.929047,1,2,1,2,2,80.000000
2025-05-02 21:36:22.797,,,,,,,,,,,,,,,,,,,,,,,,,,,,,,,,,,,,,,,,,,/muse/elements/blink
2025-05-02 21:36:23.001,1.429960299451197,0.2303305000861445,0,0.392825218666139,1.048794234727443,-0.3039119739053905,0,0.3743656923507467,1.109130662847775,0.0256343149152481,0,0.6646718461374642,1.069595591512446,-0.1370453020581238,0,0.05932035147599639,0.7960294433776613,-0.5194292075111645,0,-0.2924579486498551,765.9706959706959,792.5641025641025,985.5677655677656,793.3699633699634,478.6813186813187,0.049744,0.024719,0.994995,1.181335,-1.091614,-0.687866,417435.897436,102831868.131868,68695604.395604,131.492584,1,1,1,2,1,80.000000
2025-05-02 21:36:24.001,1.429960299451197,0.1021088474007911,0,0.3580750445938156,1.048794234727443,-0.01592864085476302,0,0.5049453645086478,1.109130662847775,0.1389887980698649,0,0.6627184105317362,1.069595591512446,-0.05727860688458903,0,0.1196382456159307,0.7960294433776613,-0.3307430160706774,0,-0.4472447390913388,700.6959706959707,788.5347985347986,870.3296703296703,778.8644688644689,736.1538461538462,0.052185,0.025024,1.003662,0.590668,-0.747681,-0.231781,420659.340659,102830256.410256,68688351.648352,130.037262,1,1,1,2,1,80.000000
2025-05-02 21:36:25.001,1.429960299451197,0.08598465565451392,0,0.3095139630496225,1.048794234727443,0.02478912157200729,0,0.4042338476459797,1.109130662847775,0.209779178343727,0,0.3016923179896542,1.069595591512446,-0.2013111217946065,0,0.4261778029372393,0.7960294433776613,-0.4393825955530521,0,-0.1253160686388197,713.1868131868132,798.6080586080586,820.7692307692308,809.0842490842491,712.7838827838829,0.059937,0.018005,1.002075,1.263580,-0.912170,0.934601,415824.175824,103129230.769231,68943003.663004,124.827225,1,1,1,2,1,80.000000
2025-05-02 21:36:25.663,,,,,,,,,,,,,,,,,,,,,,,,,,,,,,,,,,,,,,,,,,/muse/elements/blink
2025-05-02 21:36:26.001,1.429960299451197,0.0227237485402049,0,0.4790260242855082,1.048794234727443,0.08759038154820931,0,0.2702143253653589,1.109130662847775,0.3044353805621011,0,0.2728330668118698,1.069595591512446,-0.1334461590294535,0,0.2930757478306211,0.7960294433776613,-0.3916413977409876,0,-0.1162143695599911,724.4688644688645,787.3260073260074,895.3113553113553,796.996336996337,578.6080586080586,0.063538,0.034424,1.006775,1.046753,-1.929016,0.702820,418241.758242,103679633.699634,69312087.912088,120.333504,1,1,1,2,1,80.000000
2025-05-02 21:36:26.688,,,,,,,,,,,,,,,,,,,,,,,,,,,,,,,,,,,,,,,,,,/muse/elements/blink
2025-05-02 21:36:27.001,1.429960299451197,0.5157322324662833,0,0.6618916368130567,1.048794234727443,0.3110799668149523,0,0.3722019102999957,1.109130662847775,0.4417517534857877,0,0.1017914047936702,1.069595591512446,-0.01718779063220309,0,0.0728957133902603,0.7960294433776613,-0.3553452641988006,0,-0.231013860391891,710.7692307692308,814.3223443223443,892.4908424908425,803.8461538461539,659.5970695970697,0.064819,0.032654,0.999573,0.149536,-1.921539,-0.082245,420659.340659,104202637.362637,69586886.446886,116.024254,1,1,1,2,1,80.000000
2025-05-02 21:36:28.000,1.429960299451197,0.8958010779753327,0,0.6618916368130567,1.048794234727443,0.2156737151838705,0,0.3722019102999957,1.109130662847775,0.2870596101854044,0,0.1017914047936702,1.069595591512446,-0.2088129863096447,0,0.0728957133902603,0.7960294433776613,-0.4899647645018967,0,-0.231013860391891,689.4139194139194,784.5054945054945,875.1648351648352,797.3992673992674,638.2417582417582,0.051147,0.031738,1.004578,0.104675,-0.740204,-0.306549,414212.454212,104120439.560440,69376556.776557,112.221588,1,1,1,2,1,80.000000
2025-05-02 21:36:29.001,1.429960299451197,0.7363271209084016,0,0.3607058299257636,1.048794234727443,0.09093324954635149,0,0.3174431819765985,1.109130662847775,0.2602555280378014,0,0.6681541092002633,1.069595591512446,-0.2305464064941779,0,0.03489645707816722,0.7960294433776613,-0.4779586205691027,0,-0.2234723800534141,711.1721611721612,784.1025641025641,971.0622710622711,802.2344322344322,731.3186813186813,0.038086,0.032837,1.001953,0.456085,-0.837402,0.134583,416630.036630,103693333.333333,68727838.827839,113.807816,1,1,1,2,1,80.000000
2025-05-02 21:36:30.001,1.416309629312089,-0.03947557656566396,0,0.7441335213842608,1.478962794156143,-0.1170272214190646,0,0.4563597539567835,1.467286440163529,0.261856477062607,0,0.693992828075657,1.186591991197531,-0.1348730408790327,0,0.1329754956753078,0.6080515732857739,-0.4816267588843365,0,-0.2899849326231766,767.1794871794872,794.5787545787546,903.7728937728938,802.2344322344322,600.3663003663004,0.041138,0.034668,1.002380,0.643005,-1.487885,0.074768,418241.758242,103371794.871795,68258021.978022,121.536240,1,1,1,2,1,80.000000
2025-05-02 21:36:30.268,,,,,,,,,,,,,,,,,,,,,,,,,,,,,,,,,,,,,,,,,,/muse/elements/blink
2025-05-02 21:36:31.006,1.418720539915437,0.4996926471096298,0,0.6915723138226136,1.375311490412772,0.4686211241177165,0,0.4719601207981989,1.531224374490454,0.5828069363686452,0,0.1836882749993139,1.215761757192553,0.02496277394160423,0,0.2466790575016585,0.6231459810382447,-0.4388239239011119,0,-0.1963686634987608,869.1208791208792,789.7435897435897,815.5311355311355,881.2087912087912,869.92673992674,0.044739,0.039673,1.013245,0.381317,-1.069183,-0.942078,418241.758242,103366153.846154,68204029.304029,126.267090,1,1,1,2,1,80.000000
2025-05-02 21:36:31.037,,,,,,,,,,,,,,,,,,,,,,,,,,,,,,,,,,,,,,,,,,/muse/elements/blink
2025-05-02 21:36:32.007,1.418720539915437,0.9215276860009223,0,0.5214880631183723,1.375311490412772,0.7828957385708097,0,0.4837967689869695,1.531224374490454,0.7294907958879592,0,0.04284485987853588,1.215761757192553,0.01875090546911005,0,0.2908423852441032,0.6231459810382447,-0.5173109619258679,0,-0.1402992963101251,740.989010989011,792.967032967033,942.0512820512821,768.7912087912088,616.4835164835165,0.038452,0.031311,1.004028,0.097198,-0.628052,-0.448608,415018.315018,103509597.069597,68378095.238095,126.101578,1,1,1,2,1,80.000000
2025-05-02 21:36:32.359,,,,,,,,,,,,,,,,,,,,,,,,,,,,,,,,,,,,,,,,,,/muse/elements/blink
2025-05-02 21:36:33.005,1.418720539915437,0.5496778423004227,0,0.5214880631183723,1.375311490412772,0.3896610848899819,0,0.4837967689869695,1.531224374490454,0.4228960881771367,0,0.04284485987853588,1.215761757192553,-0.09933364363343337,0,0.2908423852441032,0.6231459810382447,-0.5477073206476782,0,-0.1402992963101251,809.0842490842491,797.3992673992674,949.3040293040293,770.8058608058608,593.919413919414,0.036377,0.033813,1.003052,0.695343,-1.517792,0.186920,418241.758242,103592600.732601,68360366.300366,122.759590,1,2,1,2,2,80.000000
2025-05-02 21:36:34.000,1.418720539915437,0.4517338831823915,0,1.299436403303067,1.375311490412772,0.3934310651160177,0,0.4366334554700894,1.531224374490454,0.3619593846016187,0,0.3293046182852885,1.215761757192553,-0.1778214406098462,0,0.1034050135656357,0.6231459810382447,-0.6073083820716206,0,-0.1514365010052831,736.1538461538462,783.6996336996338,774.8351648351648,833.6630036630037,910.2197802197802,0.033325,0.030212,1.005798,0.560760,0.082245,-0.575714,418241.758242,103446739.926740,68262051.282051,114.339767,1,1,1,2,1,80.000000
2025-05-02 21:36:34.096,,,,,,,,,,,,,,,,,,,,,,,,,,,,,,,,,,,,,,,,,,/muse/elements/blink
2025-05-02 21:36:35.000,1.418720539915437,0.6213379658533617,0,1.299436403303067,1.375311490412772,0.3036150639087314,0,0.4366334554700894,1.531224374490454,0.3837572981468337,0,0.3293046182852885,1.215761757192553,-0.1808024592012014,0,0.1034050135656357,0.6231459810382447,-0.5270138259414977,0,-0.1514365010052831,737.7655677655678,796.1904761904763,946.8864468864469,776.4468864468864,464.1758241758242,0.033020,0.036743,1.000854,0.343933,-2.145844,-0.037384,414212.454212,103477362.637363,68159706.959707,110.305962,1,1,1,2,1,80.000000
2025-05-02 21:36:35.603,,,,,,,,,,,,,,,,,,,,,,,,,,,,,,,,,,,,,,,,,,/muse/elements/blink
2025-05-02 21:36:36.000,1.418720539915437,0.695721347564774,0,1.299436403303067,1.375311490412772,0.3752256175286757,0,0.4366334554700894,1.531224374490454,0.5499070784591152,0,0.3293046182852885,1.215761757192553,0.03713007546248608,0,0.1034050135656357,0.6231459810382447,-0.3390792219227924,0,-0.1514365010052831,802.2344322344322,794.981684981685,789.7435897435897,787.3260073260074,733.7362637362637,0.046448,0.035889,1.002197,0.411224,-0.000000,0.912170,417435.897436,103562783.882784,68231428.571429,108.361427,1,1,1,2,1,80.000000
2025-05-02 21:36:37.000,1.418720539915437,0.6025313343318814,0,1.299436403303067,1.375311490412772,0.5182937156778391,0,0.4366334554700894,1.531224374490454,0.5618334271591905,0,0.3293046182852885,1.215761757192553,0.1515944727232329,0,0.1034050135656357,0.6231459810382447,-0.4064462195301988,0,-0.1514365010052831,581.8315018315019,811.5018315018315,726.0805860805862,655.5677655677656,692.2344322344322,0.052551,0.037476,1.010681,0.441132,-2.033691,-0.082245,412600.732601,103839194.139194,68573919.413919,105.295982,1,2,1,2,2,80.000000
2025-05-02 21:36:37.154,,,,,,,,,,,,,,,,,,,,,,,,,,,,,,,,,,,,,,,,,,/muse/elements/blink
2025-05-02 21:36:37.409,,,,,,,,,,,,,,,,,,,,,,,,,,,,,,,,,,,,,,,,,,/muse/elements/blink
2025-05-02 21:36:38.000,1.418720539915437,0.656707591981021,0,1.299436403303067,1.375311490412772,0.4955578445606658,0,0.4366334554700894,1.531224374490454,0.3759246524222853,0,0.3293046182852885,1.215761757192553,-0.03080692978232477,0,0.1034050135656357,0.6231459810382447,-0.4313659212865905,0,-0.1514365010052831,738.1684981684982,797.3992673992674,970.6593406593407,785.3113553113553,489.1575091575092,0.042236,0.030518,1.010071,0.216827,-1.360779,0.575714,415018.315018,103918168.498168,68592454.212454,109.248474,1,2,1,2,2,80.000000
2025-05-02 21:36:39.000,1.418720539915437,0.4566285365500766,0,0.7176772095281433,1.375311490412772,0.3978671454972204,0,0.3087152481603823,1.531224374490454,0.2921867387784821,0,0.4675490699656334,1.215761757192553,-0.02656578392188634,0,0.5015752482055805,0.6231459810382447,-0.4224940211318274,0,-0.183721136888906,835.6776556776557,796.1904761904763,947.6923076923077,799.4139194139194,603.5897435897436,0.039062,0.028687,1.001465,0.284119,-0.261688,-0.493469,415824.175824,103994725.274725,68575531.135531,112.406120,1,1,1,2,1,80.000000
2025-05-02 21:36:39.405,,,,,,,,,,,,,,,,,,,,,,,,,,,,,,,,,,,,,,,,,,/muse/elements/blink
2025-05-02 21:36:39.681,,,,,,,,,,,,,,,,,,,,,,,,,,,,,,,,,,,,,,,,,,/muse/elements/blink
2025-05-02 21:36:40.009,1.418720539915437,0.4465274382356301,0,0.7104791306679227,1.375311490412772,0.3199693689626644,0,0.2822576647342693,1.531224374490454,0.4548750790861646,0,0.6630015890467018,1.215761757192553,0.003730740385271927,0,0.4762667206913557,0.6231459810382447,-0.5910969626484748,0,-0.09152067502656862,802.2344322344322,789.3406593406594,819.1575091575091,799.4139194139194,861.4652014652015,0.037292,0.035461,1.002563,0.807495,-1.024323,0.164490,417435.897436,103949597.069597,68380512.820513,114.605835,1,1,1,2,1,80.000000
2025-05-02 21:36:41.008,1.418720539915437,0.5781267301915519,0,0.6387419150314857,1.375311490412772,0.4379409791689945,0,0.2280175849283249,1.531224374490454,0.4476214345775155,0,0.6630015890467018,1.215761757192553,-0.2174212425356656,0,0.4317179589817207,0.6231459810382447,-0.5701364800465111,0,0.03273670866142112,670.8791208791209,786.1172161172161,945.2747252747253,680.1465201465202,535.0915750915751,0.032715,0.036194,1.005432,0.912170,-1.315918,0.186920,413406.593407,103779560.439560,68268498.168498,119.964523,1,1,1,2,1,80.000000
2025-05-02 21:36:41.231,,,,,,,,,,,,,,,,,,,,,,,,,,,,,,,,,,,,,,,,,,/muse/elements/blink
2025-05-02 21:36:42.000,1.418720539915437,0.4895387052273869,0,0.6387419150314857,1.375311490412772,0.3073160300866576,0,0.2280175849283249,1.531224374490454,0.05828070125215273,0,0.6630015890467018,1.215761757192553,-0.1803292926751499,0,0.4317179589817207,0.6231459810382447,-0.4738525818798919,0,0.03273670866142112,722.4542124542124,789.3406593406594,976.3003663003664,784.5054945054945,657.985347985348,0.035828,0.027893,1.009033,0.164490,-1.360779,-0.284119,415018.315018,103631282.051282,68139560.439560,124.007072,1,2,1,2,2,80.000000
2025-05-02 21:36:42.042,,,,,,,,,,,,,,,,,,,,,,,,,,,,,,,,,,,,,,,,,,/muse/elements/blink
2025-05-02 21:36:43.008,1.418720539915437,0.614438627067334,0,0.6387419150314857,1.375311490412772,0.1529605600925193,0,0.2280175849283249,1.531224374490454,0.3336644375549261,0,0.6630015890467018,1.215761757192553,-0.07048221841944873,0,0.4317179589817207,0.6231459810382447,-0.3706035755820418,0,0.03273670866142112,805.4578754578755,795.3846153846154,886.4468864468864,790.5494505494506,826.007326007326,0.036194,0.031372,1.005127,0.665436,-0.358887,-0.284119,419047.619048,103729597.069597,68559413.919414,125.804543,1,2,1,2,2,80.000000
2025-05-02 21:36:43.744,,,,,,,,,,,,,,,,,,,,,,,,,,,,,,,,,,,,,,,,,,/muse/elements/blink
2025-05-02 21:36:44.007,1.418720539915437,0.3652267540867051,0,0.6387419150314857,1.375311490412772,-0.1495321916200992,0,0.2280175849283249,1.531224374490454,0.3827151403240849,0,0.6630015890467018,1.215761757192553,-0.06428678909997337,0,0.4317179589817207,0.6231459810382447,-0.2715901122572053,0,0.03273670866142112,756.7032967032967,792.1611721611722,1030.29304029304,784.1025641025641,526.6300366300367,0.061218,0.031128,1.007690,0.112152,1.555176,-0.418701,415018.315018,103781978.021978,68993772.893773,124.388733,1,2,1,2,2,80.000000
2025-05-02 21:36:44.360,,,,,,,,,,,,,,,,,,,,,,,,,,,,,,,,,,,,,,,,,,/muse/elements/blink
2025-05-02 21:36:45.007,1.418720539915437,-0.03736027394809558,0,0.6387419150314857,1.375311490412772,-0.2133821861522252,0,0.2280175849283249,1.531224374490454,0.2420227753526888,0,0.6630015890467018,1.215761757192553,-0.1287587721337758,0,0.4317179589817207,0.6231459810382447,-0.2979239923957266,0,0.03273670866142112,771.6117216117216,796.996336996337,925.1282051282052,800.2197802197802,675.3113553113553,0.030945,0.035950,1.002319,0.732727,-1.936493,0.485992,416630.036630,103914139.194139,68738315.018315,120.242104,1,2,1,2,2,80.000000
2025-05-02 21:36:45.486,,,,,,,,,,,,,,,,,,,,,,,,,,,,,,,,,,,,,,,,,,/muse/elements/blink
2025-05-02 21:36:46.010,1.418720539915437,-0.3355713130980403,0,1.765688841416548,1.375311490412772,-0.2081958763334455,0,1.586688990860156,1.531224374490454,0.2018849203648476,0,1.166005162508409,1.215761757192553,-0.05701117722232877,0,0.5585012987182926,0.6231459810382447,-0.5870782144142013,0,-0.2441057486406287,733.3333333333334,788.9377289377289,814.7252747252747,776.0439560439561,743.0036630036631,0.032959,0.029175,1.000000,0.725250,-1.248627,0.568237,418241.758242,103802930.402930,68573919.413919,119.232552,1,1,1,2,1,80.000000
2025-05-02 21:36:46.999,1.418720539915437,0.08199334493406411,0,1.514978143958748,1.375311490412772,-0.3645910082256696,0,1.286623507656535,1.531224374490454,0.08378981572271754,0,1.221442755077941,1.215761757192553,-0.09576484207210038,0,0.4363690527017887,0.6231459810382447,-0.434698090794606,0,-0.2079727092032299,746.6300366300367,799.4139194139194,974.2857142857143,792.967032967033,488.7545787545787,0.033447,0.030945,1.008606,0.620575,-1.614990,0.269165,413406.593407,103656263.736264,68357142.857143,119.456612,1,1,1,2,1,75.000000
2025-05-02 21:36:47.915,,,,,,,,,,,,,,,,,,,,,,,,,,,,,,,,,,,,,,,,,,/muse/elements/blink
2025-05-02 21:36:48.000,1.418720539915437,0.4278174465717218,0,1.154940757270279,1.375311490412772,-0.04944711383641324,0,0.9543390571130349,1.531224374490454,-0.07260234642368113,0,1.207913926733539,1.215761757192553,-0.1075141589608157,0,0.3791205810551389,0.6231459810382447,-0.3396525781120754,0,-0.1855381785837339,1184.212454212454,816.7399267399268,982.7472527472528,812.3076923076924,677.7289377289377,0.036865,0.029663,1.010498,0.777588,-1.607513,0.201874,413406.593407,103544249.084249,67741465.201465,118.421501,1,1,1,2,1,75.000000
2025-05-02 21:36:49.007,1.418720539915437,0.6775145684285403,0,1.153403422667104,1.375311490412772,0.02748994476738812,0,0.9596243448101056,1.531224374490454,0.1709569563278979,0,1.196723864457965,1.215761757192553,-0.1504992361068238,0,0.4046606541143546,0.6231459810382447,-0.2415497930444247,0,-0.0419855905716513,718.8278388278388,796.5934065934066,856.2271062271062,794.1758241758242,709.9633699633699,0.037842,0.033081,1.001465,0.770111,-2.041168,0.254211,415018.315018,103387912.087912,66782490.842491,121.327469,1,1,1,2,1,75.000000
2025-05-02 21:36:49.425,,,,,,,,,,,,,,,,,,,,,,,,,,,,,,,,,,,,,,,,,,/muse/elements/blink
2025-05-02 21:36:50.007,1.418720539915437,0.7940559788666958,0,1.153403422667104,1.375311490412772,0.2966438179151196,0,0.9596243448101056,1.531224374490454,0.4070899217251424,0,1.196723864457965,1.215761757192553,-0.01813984829076697,0,0.4046606541143546,0.6231459810382447,-0.3915808017302039,0,-0.0419855905716513,788.9377289377289,790.5494505494506,884.8351648351648,771.6117216117216,550.8058608058608,0.037659,0.028564,1.002563,0.657959,-1.256104,0.179443,411794.871795,103412087.912088,66952527.472527,123.396652,1,1,1,2,1,75.000000
2025-05-02 21:36:50.999,1.418720539915437,0.5536991976337874,0,0.9200293552896233,1.375311490412772,0.2582232597725069,0,-0.1063465240124638,1.531224374490454,0.4008765640583677,0,0.3662113202449886,1.215761757192553,-0.02067854011719639,0,0.6177637982640832,0.6231459810382447,-0.3582820249859839,0,0.07965943163621915,890.8791208791209,792.5641025641025,940.0366300366301,790.5494505494506,670.0732600732601,0.035767,0.029175,1.000732,0.979462,-1.824341,0.643005,415018.315018,103536996.336996,67673772.893773,126.193359,1,2,1,2,2,75.000000
2025-05-02 21:36:51.999,1.418720539915437,0.1932321599101329,0,0.7106892568493057,1.375311490412772,-0.2029330090290334,0,0.2733544726821966,1.531224374490454,0.02081632409425684,0,0.6420560955070403,1.215761757192553,-0.2214139707790935,0,0.4798642589429699,0.6231459810382447,-0.3739138757633422,0,-0.1172008369667817,891.2820512820513,794.1758241758242,811.5018315018315,801.4285714285714,818.3516483516484,0.033020,0.030273,1.004333,0.538330,-1.914062,0.403748,413406.593407,103591794.871795,67809963.369963,120.297676,1,1,1,2,1,75.000000
2025-05-02 21:36:53.006,1.418720539915437,-0.2455925790188754,0,0.3481602449931046,1.375311490412772,0.01273925026830022,0,0.1651502270420692,1.531224374490454,0.1636326510314527,0,0.5474335940131894,1.215761757192553,-0.1486187857169428,0,0.2493616500724078,0.6231459810382447,-0.6047411839168239,0,-0.2524172710360491,869.5238095238095,790.5494505494506,965.0183150183151,830.0366300366301,492.3809523809524,0.033630,0.029541,1.002563,0.837402,-1.293488,0.037384,413406.593407,103511208.791209,68073479.853480,121.628258,1,1,1,2,1,75.000000
2025-05-02 21:36:53.082,,,,,,,,,,,,,,,,,,,,,,,,,,,,,,,,,,,,,,,,,,/muse/elements/blink
2025-05-02 21:36:54.000,1.418720539915437,0.05456945249329574,0,0.2661740119374382,1.375311490412772,0.05575161094387465,0,-0.08075052683631882,1.531224374490454,0.2086175311960999,0,0.447803830406629,1.215761757192553,-0.03532487542636729,0,0.2769519891390257,0.6231459810382447,-0.853983274198688,0,-0.2583985588020474,836.8864468864469,787.7289377289378,911.4285714285714,779.2673992673992,627.7655677655678,0.032715,0.030334,1.008972,0.650482,-1.517792,0.134583,413406.593407,103600659.340659,67905860.805861,121.525070,1,1,1,2,1,75.000000
2025-05-02 21:36:55.000,1.418720539915437,0.07031465783534868,0,0.8728104218939839,1.375311490412772,-0.637163975589591,0,0.4364412660356026,1.531224374490454,-0.115480201751758,0,0.1678785787905509,1.215761757192553,0.0350200769491345,0,0.2684929152431732,0.6231459810382447,-0.4296298338592913,0,-0.3113310436457298,732.5274725274726,802.2344322344322,724.4688644688645,789.3406593406594,830.0366300366301,0.026855,0.029480,1.005188,0.859833,-1.659851,0.396271,415824.175824,103684468.864469,67917142.857143,120.949242,1,1,1,2,1,75.000000
2025-05-02 21:36:55.427,,,,,,,,,,,,,,,,,,,,,,,,,,,,,,,,,,,,,,,,,,/muse/elements/blink
2025-05-02 21:36:56.000,1.418720539915437,0.2693448319323914,0,0.8144106357172014,1.375311490412772,-0.1070506176373277,0,0.50135064769521,1.531224374490454,0.3738505519813563,0,0.2254596722731021,1.215761757192553,-0.115604467398947,0,0.1443906713530104,0.6231459810382447,-0.3994609120609956,0,-0.2726213623191983,843.7362637362637,809.0842490842491,940.8424908424909,788.9377289377289,569.3406593406594,0.034790,0.029907,1.007568,0.613098,-2.175751,-0.142059,412600.732601,103700586.080586,67921172.161172,122.392448,1,1,1,2,1,75.000000
2025-05-02 21:36:57.000,1.418720539915437,0.4320234993438648,0,0.5942337822863135,1.375311490412772,0.1052489358236334,0,0.1314828098841579,1.531224374490454,0.3916194412623874,0,0.1683251874551469,1.215761757192553,-0.07637157356024595,0,0.2261351309281636,0.6231459810382447,-0.4571250974266219,0,-0.477337634395345,852.6007326007326,795.7875457875458,815.1282051282052,792.1611721611722,678.9377289377289,0.028870,0.030518,1.007812,0.732727,-1.383209,0.224304,413406.593407,103744908.424908,68071062.271062,122.951637,1,1,1,2,1,75.000000
2025-05-02 21:36:57.766,,,,,,,,,,,,,,,,,,,,,,,,,,,,,,,,,,,,,,,,,,/muse/elements/blink
2025-05-02 21:36:58.000,1.418720539915437,0.2374324728980432,0,0.4465054827702795,1.375311490412772,-0.04862379207685815,0,0.05265303359608615,1.531224374490454,0.3601303086066451,0,0.2771581358190544,1.215761757192553,-0.06828091118197525,0,0.187486739807617,0.6231459810382447,-0.5132544606241503,0,-0.4013925239194068,778.4615384615385,798.2051282051282,878.7912087912089,803.4432234432235,699.0842490842491,0.034851,0.025024,1.006042,0.814972,-1.076660,-0.119629,415018.315018,103918168.498168,68342637.362637,121.042503,1,1,1,2,1,75.000000
2025-05-02 21:36:58.979,,,,,,,,,,,,,,,,,,,,,,,,,,,,,,,,,,,,,,,,,,/muse/elements/blink
2025-05-02 21:36:59.000,1.418720539915437,0.5520447302167676,0,0.2925602388109408,1.375311490412772,0.2359431071533137,0,-0.07768570937873684,1.531224374490454,0.4039786118508464,0,0.1783844502084965,1.215761757192553,-0.0418432207243471,0,0.1321738443625504,0.6231459810382447,-0.6818798612087756,0,-0.2902229718579244,751.8681318681319,801.025641025641,992.4175824175825,815.934065934066,578.2051282051282,0.032349,0.026978,0.997192,-0.022430,-0.957031,-0.844879,414212.454212,103979413.919414,68521538.461538,118.671173,1,1,1,2,1,75.000000
2025-05-02 21:37:00.000,1.418720539915437,0.40394317901819,0,0.2925602388109408,1.375311490412772,0.2585209045588991,0,-0.07768570937873684,1.531224374490454,0.6264037075423763,0,0.1783844502084965,1.215761757192553,0.1490673635811465,0,0.1321738443625504,0.6231459810382447,-0.4756234733495713,0,-0.2902229718579244,799.0109890109891,788.5347985347986,842.9304029304029,791.7582417582418,745.4212454212454,0.033325,0.025635,1.006287,-0.089722,-0.493469,-0.777588,415018.315018,103904468.864469,68406300.366300,113.679443,1,1,1,2,1,75.000000
2025-05-02 21:37:01.010,1.601810830402915,0.2565598501458256,0,0.6483450109690845,1.361917162419151,0.03792040574901991,0,0.2273720817389595,1.141807314067282,0.3931255937716065,0,0.3760598859825144,0.9679035145229057,-0.03527588117449224,0,0.3246743983941129,0.7357648052831545,-0.4473672177051889,0,-0.2052821069321606,813.919413919414,790.952380952381,943.2600732600733,808.6813186813187,680.1465201465202,0.020142,0.025513,1.005432,0.755157,-0.994415,0.568237,415018.315018,103918974.358974,68408717.948718,114.393501,1,1,1,2,1,75.000000
2025-05-02 21:37:01.618,,,,,,,,,,,,,,,,,,,,,,,,,,,,,,,,,,,,,,,,,,/muse/elements/blink
2025-05-02 21:37:02.000,1.601810830402915,0.1651056041583444,0,0.7127219972039234,1.361917162419151,0.05008421538909315,0,0.3140023501660922,1.141807314067282,0.3178357704443194,0,0.5169812483700646,0.9679035145229057,-0.144387040339845,0,0.1824129996773411,0.7357648052831545,-0.3601233358225396,0,-0.1839575683707758,698.2783882783883,790.5494505494506,973.4798534798535,784.5054945054945,528.6446886446887,0.025574,0.028992,1.005493,0.485992,-1.450500,0.082245,413406.593407,104031794.871795,68387765.567766,113.870857,1,1,1,2,1,75.000000
2025-05-02 21:37:02.915,,,,,,,,,,,,,,,,,,,,,,,,,,,,,,,,,,,,,,,,,,/muse/elements/blink
2025-05-02 21:37:03.000,1.601810830402915,0.2454860380189423,0,0.7112557567030088,1.361917162419151,0.1477076344746371,0,0.1985302644524352,1.141807314067282,0.2502771874757604,0,0.4185112093912539,0.9679035145229057,-0.09895792512257164,0,0.1785067703137257,0.7357648052831545,-0.3563672573616858,0,-0.08624475904253373,855.0183150183151,801.4285714285714,912.6373626373627,827.2161172161173,638.2417582417582,0.018616,0.024719,1.013733,1.001892,-2.168274,0.650482,413406.593407,103939926.739927,68238681.318681,117.671600,1,1,1,2,1,75.000000
2025-05-02 21:37:03.956,,,,,,,,,,,,,,,,,,,,,,,,,,,,,,,,,,,,,,,,,,/muse/elements/blink
2025-05-02 21:37:04.009,1.601810830402915,0.7561796476310471,0,0.7112557567030088,1.361917162419151,0.1605605055875131,0,0.1985302644524352,1.141807314067282,0.2580824766739903,0,0.4185112093912539,0.9679035145229057,-0.04874360879481416,0,0.1785067703137257,0.7357648052831545,-0.6120699741048597,0,-0.08624475904253373,802.2344322344322,805.0549450549451,871.5384615384615,821.978021978022,703.1135531135532,0.026184,0.027588,1.005310,0.366364,-1.001892,-0.044861,414212.454212,103743296.703297,68195164.835165,120.840935,1,1,1,2,1,75.000000
2025-05-02 21:37:05.009,1.601810830402915,0.9444900666916165,0,0.7112557567030088,1.361917162419151,0.2610465000492298,0,0.1985302644524352,1.141807314067282,0.3139420808311346,0,0.4185112093912539,0.9679035145229057,0.01318876637945611,0,0.1785067703137257,0.7357648052831545,-0.5955202810399609,0,-0.08624475904253373,696.2637362637363,845.7509157509157,1025.860805860806,751.4652014652015,589.4871794871796,0.024109,0.023254,0.999878,0.164490,0.299072,-0.687866,413406.593407,103511208.791209,68221758.241758,122.294037,1,2,1,2,2,75.000000
2025-05-02 21:37:05.364,,,,,,,,,,,,,,,,,,,,,,,,,,,,,,,,,,,,,,,,,,/muse/elements/blink
2025-05-02 21:37:06.008,1.601810830402915,1.230267953305554,0,0.7112557567030088,1.361917162419151,0.2259728255636426,0,0.1985302644524352,1.141807314067282,0.4263503791735109,0,0.4185112093912539,0.9679035145229057,0.1388622452253473,0,0.1785067703137257,0.7357648052831545,-0.4047352209897459,0,-0.08624475904253373,656.3736263736264,778.8644688644689,981.5384615384615,801.4285714285714,655.5677655677656,0.023804,0.028015,1.015625,0.620575,0.456085,-1.166382,412600.732601,103472527.472527,68508644.688645,120.565422,1,2,1,2,2,75.000000
2025-05-02 21:37:06.403,,,,,,,,,,,,,,,,,,,,,,,,,,,,,,,,,,,,,,,,,,/muse/elements/blink
2025-05-02 21:37:07.010,1.601810830402915,0.8919985768388837,0,0.7112557567030088,1.361917162419151,0.3316996974419411,0,0.1985302644524352,1.141807314067282,0.2029067047908391,0,0.4185112093912539,0.9679035145229057,-0.09480642996845209,0,0.1785067703137257,0.7357648052831545,-0.1880149124294195,0,-0.08624475904253373,707.1428571428571,782.4908424908425,690.2197802197802,807.8754578754579,917.8754578754579,0.015625,0.028198,1.011597,0.710297,-1.054230,0.971985,414212.454212,103694139.194139,68984908.424908,118.863464,1,2,1,2,2,75.000000
2025-05-02 21:37:07.515,,,,,,,,,,,,,,,,,,,,,,,,,,,,,,,,,,,,,,,,,,/muse/elements/blink
2025-05-02 21:37:08.000,1.601810830402915,0.5280669266503889,0,0.7112557567030088,1.361917162419151,0.2039287202550616,0,0.1985302644524352,1.141807314067282,0.1773169456458318,0,0.4185112093912539,0.9679035145229057,-0.02150123511857468,0,0.1785067703137257,0.7357648052831545,-0.3076529392583445,0,-0.08624475904253373,773.2234432234433,795.7875457875458,937.2161172161173,793.3699633699634,572.5641025641025,0.026733,0.021973,1.010254,0.650482,-0.867310,-0.112152,415018.315018,103846446.886447,69079194.139194,115.940262,1,2,1,2,2,75.000000
2025-05-02 21:37:08.834,,,,,,,,,,,,,,,,,,,,,,,,,,,,,,,,,,,,,,,,,,/muse/elements/blink
2025-05-02 21:37:09.000,1.601810830402915,0.5049498018615532,0,0.7112557567030088,1.361917162419151,0.1688202348697813,0,0.1985302644524352,1.141807314067282,0.1508111883258768,0,0.4185112093912539,0.9679035145229057,0.04642836383103612,0,0.1785067703137257,0.7357648052831545,-0.3220206246942113,0,-0.08624475904253373,888.0586080586081,793.3699633699634,761.5384615384615,848.974358974359,807.4725274725275,0.015503,0.029724,1.012573,0.927124,-0.590668,0.665436,414212.454212,103821465.201465,68845494.505495,117.202469,1,2,1,2,2,75.000000
2025-05-02 21:37:09.958,,,,,,,,,,,,,,,,,,,,,,,,,,,,,,,,,,,,,,,,,,/muse/elements/blink
2025-05-02 21:37:10.000,1.601810830402915,0.0670274289624814,0,0.7112557567030088,1.361917162419151,0.2937682988797375,0,0.1985302644524352,1.141807314067282,0.1413608882194818,0,0.4185112093912539,0.9679035145229057,0.1349475383534451,0,0.1785067703137257,0.7357648052831545,-0.3985836457574007,0,-0.08624475904253373,811.5018315018315,789.3406593406594,872.3443223443223,826.8131868131868,663.2234432234433,0.014709,0.028992,1.006653,0.456085,-1.457977,0.127106,417435.897436,103893992.673993,68818095.238095,120.980927,1,2,1,2,2,75.000000
2025-05-02 21:37:11.006,1.601810830402915,0.7416277345792684,0,0.7112557567030088,1.361917162419151,0.3415997926522933,0,0.1985302644524352,1.141807314067282,0.2997943034600368,0,0.4185112093912539,0.9679035145229057,0.08832689674575114,0,0.1785067703137257,0.7357648052831545,-0.1828712488369748,0,-0.08624475904253373,831.6483516483516,799.4139194139194,883.2234432234433,771.6117216117216,586.6666666666666,0.018066,0.017883,1.006592,1.016846,-2.796326,0.478516,413406.593407,103840000.000000,68669010.989011,121.254318,1,2,1,2,2,75.000000
2025-05-02 21:37:11.273,,,,,,,,,,,,,,,,,,,,,,,,,,,,,,,,,,,,,,,,,,/muse/elements/blink
2025-05-02 21:37:12.000,1.601810830402915,0.8592320840438155,0,0.7112557567030088,1.361917162419151,0.4945717877579512,0,0.1985302644524352,1.141807314067282,0.3393147636865487,0,0.4185112093912539,0.9679035145229057,0.2340332458039802,0,0.1785067703137257,0.7357648052831545,-0.1716570892756492,0,-0.08624475904253373,686.996336996337,795.7875457875458,858.2417582417582,772.4175824175825,652.7472527472528,0.030823,0.034851,1.011536,0.628052,-2.056122,0.216827,412600.732601,103723956.043956,68675457.875458,125.180107,1,2,1,2,2,75.000000
2025-05-02 21:37:13.000,1.601810830402915,0.3653368932227287,0,0.7112557567030088,1.361917162419151,0.3319869935027509,0,0.1985302644524352,1.141807314067282,0.2768857024614104,0,0.4185112093912539,0.9679035145229057,0.03389790566519541,0,0.1785067703137257,0.7357648052831545,-0.3040351217501946,0,-0.08624475904253373,867.9120879120879,800.6227106227107,953.7362637362637,797.3992673992674,505.2747252747253,0.024719,0.027466,1.010620,0.957031,-1.958923,-0.284119,416630.036630,103749743.589744,68652087.912088,125.785706,1,2,1,2,2,75.000000
2025-05-02 21:37:14.000,1.601810830402915,-0.1833700932699424,0,0.5742888825906522,1.361917162419151,-0.7155926809850218,0,0.1222432404953116,1.141807314067282,0.07522264887967491,0,0.5221557407607841,0.9679035145229057,-0.2428098628450758,0,0.3330772641305139,0.7357648052831545,-0.3722375160108241,0,-0.2014896322642444,709.1575091575091,802.6373626373627,924.3223443223443,768.7912087912088,614.0659340659341,0.025879,0.020874,1.003052,0.560760,-1.024323,-0.067291,415018.315018,103915750.915751,68752820.512821,127.430321,1,1,1,2,1,75.000000
2025-05-02 21:37:14.218,,,,,,,,,,,,,,,,,,,,,,,,,,,,,,,,,,,,,,,,,,/muse/elements/blink
2025-05-02 21:37:15.000,1.601810830402915,-0.1200737120952765,0,0.5645332561236035,1.361917162419151,-0.003221047151742519,0,-0.06498822490687424,1.141807314067282,0.1963331761498516,0,0.5111108468486764,0.9679035145229057,-0.06873058044232312,0,0.5293748251312811,0.7357648052831545,-0.2447645811305544,0,-0.1638512337342238,811.5018315018315,801.025641025641,873.5531135531136,779.2673992673992,651.1355311355312,0.012329,0.024719,1.013611,2.287903,-0.957031,-1.084137,413406.593407,104022930.402930,68953479.853480,128.776871,1,1,1,2,1,75.000000
2025-05-02 21:37:15.817,,,,,,,,,,,,,,,,,,,,,,,,,,,,,,,,,,,,,,,,,,/muse/elements/blink
2025-05-02 21:37:16.000,1.601810830402915,-0.03278707498409152,0,0.5861086431511404,1.361917162419151,0.1075156028842931,0,-0.1194794377973119,1.141807314067282,0.284930440187341,0,0.5103150286197726,0.9679035145229057,0.03848017912992846,0,0.6249051871402524,0.7357648052831545,-0.3717472858019263,0,-0.1511237403619374,812.3076923076924,801.8315018315019,942.0512820512821,853.8095238095239,504.0659340659341,0.013123,0.024231,1.002319,0.777588,-1.009369,0.605621,411794.871795,103815824.175824,68129890.109890,127.748550,1,1,1,2,1,75.000000
2025-05-02 21:37:17.000,1.601810830402915,0.6062856040099691,0,0.5861086431511404,1.361917162419151,0.5496652317165734,0,-0.1194794377973119,1.141807314067282,0.4102182951674187,0,0.5103150286197726,0.9679035145229057,0.1203834638697797,0,0.6249051871402524,0.7357648052831545,-0.2159093490733163,0,-0.1511237403619374,719.6336996336996,800.6227106227107,921.5018315018315,781.2820512820513,728.0952380952381,0.013855,0.025208,1.006042,0.643005,-1.054230,-0.657959,416630.036630,103801318.681319,68413553.113553,124.472679,1,2,1,2,2,75.000000
2025-05-02 21:37:17.538,,,,,,,,,,,,,,,,,,,,,,,,,,,,,,,,,,,,,,,,,,/muse/elements/blink
2025-05-02 21:37:18.000,1.601810830402915,0.4643205634838209,0,0.5861086431511404,1.361917162419151,-0.04242883464606338,0,-0.1194794377973119,1.141807314067282,0.5910986386996893,0,0.5103150286197726,0.9679035145229057,-0.0391584910693349,0,0.6249051871402524,0.7357648052831545,-0.2598034257882592,0,-0.1511237403619374,772.4175824175825,793.7728937728938,745.8241758241759,782.0879120879121,676.1172161172161,0.014038,0.024353,1.006775,0.269165,-2.400055,-0.829926,413406.593407,103817435.897436,68389377.289377,126.904610,1,2,1,2,2,75.000000
2025-05-02 21:37:18.999,1.601810830402915,0.9215352313837459,0,0.5861086431511404,1.361917162419151,0.2932060003748114,0,-0.1194794377973119,1.141807314067282,0.5826295522016242,0,0.5103150286197726,0.9679035145229057,0.01456249055360994,0,0.6249051871402524,0.7357648052831545,-0.4562835126420906,0,-0.1511237403619374,638.2417582417582,830.0366300366301,985.5677655677656,651.941391941392,566.1172161172161,0.020691,0.020020,1.014282,1.428070,-2.272949,0.306549,413406.593407,103916556.776557,68813260.073260,127.650932,1,2,1,2,2,75.000000
2025-05-02 21:37:19.201,,,,,,,,,,,,,,,,,,,,,,,,,,,,,,,,,,,,,,,,,,/muse/elements/blink
2025-05-02 21:37:19.999,1.601810830402915,1.105196443444596,0,0.5861086431511404,1.361917162419151,0.3748999647938755,0,-0.1194794377973119,1.141807314067282,0.5310286288879866,0,0.5103150286197726,0.9679035145229057,-0.02607432270292761,0,0.6249051871402524,0.7357648052831545,-0.1824543271791781,0,-0.1511237403619374,577.8021978021978,784.1025641025641,936.007326007326,792.1611721611722,671.6849816849817,0.031006,0.024719,1.007629,0.762634,-2.130890,-0.351410,416630.036630,103900439.560440,68655311.355311,128.741257,1,2,1,2,2,75.000000
2025-05-02 21:37:20.499,,,,,,,,,,,,,,,,,,,,,,,,,,,,,,,,,,,,,,,,,,/muse/elements/blink
2025-05-02 21:37:21.001,1.601810830402915,0.9056623161703177,0,0.5861086431511404,1.361917162419151,0.339359957411207,0,-0.1194794377973119,1.141807314067282,0.5339945401160203,0,0.5103150286197726,0.9679035145229057,0.03782590528101082,0,0.6249051871402524,0.7357648052831545,-0.2190357077673578,0,-0.1511237403619374,840.9157509157509,794.981684981685,724.4688644688645,786.5201465201466,719.6336996336996,0.028076,0.021790,0.998413,-0.074768,-0.949554,-0.022430,415018.315018,103560366.300366,68569084.249084,129.544617,1,2,1,2,2,75.000000
2025-05-02 21:37:22.000,1.601810830402915,0.5472471066401722,0,0.5861086431511404,1.361917162419151,0.3554680405205614,0,-0.1194794377973119,1.141807314067282,0.1556930193881596,0,0.5103150286197726,0.9679035145229057,0.04369235538307055,0,0.6249051871402524,0.7357648052831545,-0.265367453984745,0,-0.1511237403619374,803.4432234432235,786.5201465201466,941.2454212454213,795.7875457875458,691.8315018315019,0.016357,0.020691,1.000671,0.560760,0.889740,-0.485992,412600.732601,103275091.575092,68043663.003663,134.669815,1,2,1,2,2,75.000000
2025-05-02 21:37:22.949,,,,,,,,,,,,,,,,,,,,,,,,,,,,,,,,,,,,,,,,,,/muse/elements/blink
2025-05-02 21:37:23.000,1.601810830402915,0.1185327068888075,0,0.9738453818830661,1.361917162419151,-0.1276106597468261,0,-0.008019689533514942,1.141807314067282,-0.09726759769465781,0,0.561737721326105,0.9679035145229057,0.05275203636189706,0,0.3464039949910374,0.7357648052831545,-0.4237351373404091,0,-0.1489548962264132,745.4212454212454,799.4139194139194,863.4798534798535,825.2014652014652,730.5128205128206,0.022583,0.023743,1.009521,-0.157013,-2.190704,-1.084137,416630.036630,103198534.798535,67776923.076923,131.887131,1,1,1,2,1,75.000000
2025-05-02 21:37:23.999,1.601810830402915,0.4140459444151405,0,0.9876084009561887,1.361917162419151,0.2291290352454282,0,0.07690586439591175,1.141807314067282,0.388318235645883,0,0.4515467730436616,0.9679035145229057,-0.1021994263719019,0,0.2892616959879108,0.7357648052831545,-0.3376978765408049,0,-0.3269494962900359,820.7692307692308,788.9377289377289,883.2234432234433,765.5677655677656,602.7838827838827,0.019409,0.025146,1.006897,0.014954,-0.807495,-1.271057,414212.454212,103321025.641026,67883296.703297,133.054840,1,1,1,2,1,75.000000
2025-05-02 21:37:24.568,,,,,,,,,,,,,,,,,,,,,,,,,,,,,,,,,,,,,,,,,,/muse/elements/blink
2025-05-02 21:37:25.000,1.601810830402915,0.7578958370164921,0,0.9876084009561887,1.361917162419151,0.1484778832986857,0,0.07690586439591175,1.141807314067282,0.4734099758057295,0,0.4515467730436616,0.9679035145229057,-0.1625211455225254,0,0.2892616959879108,0.7357648052831545,-0.286046869629438,0,-0.3269494962900359,784.5054945054945,839.3040293040293,954.9450549450549,783.2967032967033,669.6703296703297,0.020569,0.014648,1.009338,0.127106,-0.583191,-0.702820,412600.732601,103663516.483516,68121025.641026,132.020691,1,1,1,2,1,75.000000
2025-05-02 21:37:26.000,1.601810830402915,1.226276105316802,0,0.9876084009561887,1.361917162419151,0.2284173361080886,0,0.07690586439591175,1.141807314067282,0.4126751416805334,0,0.4515467730436616,0.9679035145229057,-0.05029315876014447,0,0.2892616959879108,0.7357648052831545,-0.4734659364272356,0,-0.3269494962900359,850.5860805860806,849.3772893772895,953.3333333333334,761.941391941392,803.8461538461539,0.009277,0.015869,1.010620,0.515900,-0.418701,-0.157013,419047.619048,103742490.842491,68475604.395604,128.247406,1,2,1,2,2,75.000000
2025-05-02 21:37:26.778,,,,,,,,,,,,,,,,,,,,,,,,,,,,,,,,,,,,,,,,,,/muse/elements/blink
2025-05-02 21:37:26.999,1.601810830402915,1.25225828054722,0,0.8053189234075058,1.361917162419151,-0.08706947560934489,0,0.5243146777471354,1.141807314067282,0.02559650473327292,0,0.4959401820583449,0.9679035145229057,0.07376329407381048,0,0.4255286808342126,0.7357648052831545,-0.4859637218264354,0,-0.09095850214677383,789.3406593406594,780.8791208791209,888.0586080586081,781.6849816849817,627.3626373626374,0.007507,0.013611,1.006836,0.448608,-0.837402,-0.194397,416630.036630,103518461.538462,68390989.010989,121.720291,1,1,1,2,1,75.000000
2025-05-02 21:37:27.998,1.601810830402915,0.5563332554875734,0,0.7664694172180181,1.361917162419151,0.1504438472914342,0,0.299969360330599,1.141807314067282,-0.05511436090225715,0,0.3960768414587627,0.9679035145229057,-0.02534010615537034,0,0.416359705685258,0.7357648052831545,-0.5524718262731507,0,-0.1022612578862656,768.3882783882784,772.014652014652,990,792.5641025641025,523.8095238095239,0.002991,0.016052,1.006409,0.538330,-1.069183,0.321503,412600.732601,103110695.970696,67990476.190476,121.269592,1,1,1,2,1,75.000000
2025-05-02 21:37:28.326,,,,,,,,,,,,,,,,,,,,,,,,,,,,,,,,,,,,,,,,,,/muse/elements/blink
2025-05-02 21:37:28.999,1.601810830402915,0.5582259052773431,0,0.7664694172180181,1.361917162419151,0.12468810662772,0,0.299969360330599,1.141807314067282,0.2850591523409856,0,0.3960768414587627,0.9679035145229057,0.02142522364801677,0,0.416359705685258,0.7357648052831545,-0.5114476263207641,0,-0.1022612578862656,808.2783882783883,785.7142857142858,866.3003663003664,794.1758241758242,606.8131868131868,0.004272,0.015137,1.006836,0.695343,-1.472931,-0.665436,418241.758242,102826227.106227,67498095.238095,123.436844,1,1,1,2,1,75.000000
2025-05-02 21:37:29.452,,,,,,,,,,,,,,,,,,,,,,,,,,,,,,,,,,,,,,,,,,/muse/elements/blink
2025-05-02 21:37:30.001,1.601810830402915,0.4281053740497968,0,0.7664694172180181,1.361917162419151,0.2081611091299376,0,0.299969360330599,1.141807314067282,0.4990967617153108,0,0.3960768414587627,0.9679035145229057,-0.04260228581164541,0,0.416359705685258,0.7357648052831545,-0.5606340138898003,0,-0.1022612578862656,772.4175824175825,794.5787545787546,713.992673992674,774.4322344322345,810.2930402930403,0.009521,0.015869,1.005371,0.874786,-2.781372,-0.351410,415018.315018,102993846.153846,67586739.926740,126.344856,1,2,1,2,2,75.000000
2025-05-02 21:37:31.004,1.601810830402915,0.2315797202911265,0,0.01946627190259912,1.361917162419151,-0.02143942073174911,0,0.3604626372803539,1.141807314067282,0.4317992400871178,0,0.6261891711452242,0.9679035145229057,-0.09074227472041575,0,0.01754382663164257,0.7357648052831545,-0.5638226271526705,0,-0.3325373672696127,865.8974358974359,795.7875457875458,967.4358974358975,787.3260073260074,473.0402930402931,0.016663,0.019226,1.005920,0.971985,-1.570129,-0.426178,413406.593407,103221904.761905,67888937.728938,126.967392,1,2,1,2,2,75.000000
2025-05-02 21:37:31.571,,,,,,,,,,,,,,,,,,,,,,,,,,,,,,,,,,,,,,,,,,/muse/elements/blink
2025-05-02 21:37:32.004,1.601810830402915,0.403027675929903,0,0.1136128092323118,1.361917162419151,0.3336084236912136,0,0.3493153178704672,1.141807314067282,0.3890613545390233,0,0.6686931930834117,0.9679035145229057,0.01205743885195883,0,0.09381441764592841,0.7357648052831545,-0.5361465498702318,0,-0.2806747441470309,781.2820512820513,795.3846153846154,833.6630036630037,794.981684981685,639.4505494505495,0.007385,0.018250,1.004211,0.538330,-1.375732,0.672913,419047.619048,103408058.608059,68071868.131868,127.922897,1,1,1,2,1,75.000000
2025-05-02 21:37:33.006,1.601810830402915,0.5526298209634601,0,0.1909419204603661,1.361917162419151,0.4415290775191928,0,0.3378743183234361,1.141807314067282,0.3764283163116216,0,0.527313602101758,0.9679035145229057,-0.03009017932046402,0,0.1586701595491822,0.7357648052831545,-0.592770531096226,0,-0.2343500078282642,860.2564102564103,797.3992673992674,765.1648351648352,772.8205128205128,585.0549450549451,0.008545,0.012085,1.006165,-0.149536,-0.732727,-0.919647,417435.897436,103030915.750916,67910695.970696,127.480560,1,1,1,1,1,75.000000
2025-05-02 21:37:33.303,,,,,,,,,,,,,,,,,,,,,,,,,,,,,,,,,,,,,,,,,,/muse/elements/blink
2025-05-02 21:37:34.014,1.601810830402915,0.09915243710508746,0,0.4673593700038928,1.361917162419151,0.2531475004006352,0,0.1107510067514612,1.141807314067282,0.1714382059626315,0,0.1916972353622538,0.9679035145229057,-0.0967646080843878,0,0.3009839063602269,0.7357648052831545,-0.6374630990155,0,-0.3406464142057641,832.8571428571429,799.0109890109891,883.6263736263736,799.0109890109891,680.5494505494506,0.003784,0.010071,1.007812,0.755157,-0.762634,-0.000000,413406.593407,102893919.413919,67568205.128205,127.457016,1,1,1,2,1,75.000000
2025-05-02 21:37:35.017,1.601810830402915,-0.07810263855502121,0,0.3276026966362253,1.361917162419151,0.2338283451862808,0,0.2474469005264085,1.141807314067282,0.175496502060097,0,0.4527933864911948,0.9679035145229057,-0.09735003507879397,0,0.3609280389324604,0.7357648052831545,-0.5755561071981278,0,-0.3053030582327569,836.0805860805862,794.5787545787546,884.0293040293041,799.8168498168499,779.2673992673992,-0.005615,0.010376,1.011719,0.538330,-0.770111,0.082245,419047.619048,103108278.388278,67631062.271062,128.023193,1,1,1,2,1,75.000000
2025-05-02 21:37:36.016,1.601810830402915,-0.6986507531793019,0,0.5614659021448879,1.361917162419151,-0.2474053448299278,0,0.3056869550836853,1.141807314067282,-0.1107565025658062,0,0.7649287403956301,0.9679035145229057,-0.05193640522214173,0,0.2128522195310883,0.7357648052831545,-0.54694141095104,0,-0.1532276188983274,809.4871794871796,794.1758241758242,851.3919413919414,793.7728937728938,634.6153846153846,-0.010803,0.011780,1.009644,0.687866,-0.912170,0.104675,417435.897436,103512014.652015,67855091.575092,126.654823,1,1,1,2,1,75.000000
2025-05-02 21:37:36.882,,,,,,,,,,,,,,,,,,,,,,,,,,,,,,,,,,,,,,,,,,/muse/elements/blink
2025-05-02 21:37:37.020,1.601810830402915,0.1972143532521381,0,0.6838936221021156,1.361917162419151,-0.299108652288145,0,0.470342280972126,1.141807314067282,0.1503157250429439,0,0.7406088546152166,0.9679035145229057,-0.1924760039094323,0,0.208829666948138,0.7357648052831545,-0.3985537707033997,0,0.04607071621349333,812.7106227106227,808.6813186813187,921.0989010989011,823.992673992674,620.1098901098901,-0.006104,0.015320,1.009827,0.590668,-1.323395,0.381317,415824.175824,103734432.234432,68113772.893773,123.499428,1,1,1,2,1,75.000000
2025-05-02 21:37:38.012,1.601810830402915,0.7205935429164066,0,0.7107575405090125,1.361917162419151,0.1944961044620742,0,0.5496321175375118,1.141807314067282,0.231322290156552,0,0.5730975712032829,0.9679035145229057,-0.1541465662904393,0,0.2232152959009306,0.7357648052831545,-0.4292751271163675,0,0.1087180382061124,850.989010989011,803.4432234432235,836.8864468864469,803.8461538461539,709.1575091575091,-0.013733,0.010071,0.996948,0.814972,-1.226196,0.575714,419853.479853,103512014.652015,68083150.183150,123.663818,1,1,1,2,1,75.000000
2025-05-02 21:37:38.885,,,,,,,,,,,,,,,,,,,,,,,,,,,,,,,,,,,,,,,,,,/muse/elements/blink
2025-05-02 21:37:39.025,1.601810830402915,0.4263949266257143,0,0.6338935799458865,1.361917162419151,-0.01616019644172971,0,0.2921431595418027,1.141807314067282,0.3967558488570614,0,0.3143406717931602,0.9679035145229057,-0.1922424251439991,0,0.2317519900536106,0.7357648052831545,-0.3921791577468794,0,-0.07903680474150172,795.3846153846154,777.6556776556777,780.4761904761905,802.2344322344322,682.967032967033,-0.014832,0.016418,0.997498,1.929016,-1.375732,0.695343,419047.619048,103283956.043956,67896996.336996,124.530807,1,1,1,2,1,75.000000
2025-05-02 21:37:40.025,1.601810830402915,0.5030816748176825,0,0.6739738675613851,1.361917162419151,0.1725364300354046,0,0.230058809388502,1.141807314067282,0.5833836669820857,0,0.2319202864322996,0.9679035145229057,-0.2342439823861859,0,0.2685587244486182,0.7357648052831545,-0.4715686663888932,0,-0.02457767263113475,767.985347985348,804.6520146520147,975.4945054945056,810.2930402930403,616.080586080586,-0.007385,0.012878,1.004517,0.650482,-1.622467,0.209351,415824.175824,103221904.761905,67575457.875458,123.921661,1,1,1,2,1,75.000000
2025-05-02 21:37:41.015,1.601810830402915,0.3754345936131717,0,0.4711238312925775,1.361917162419151,-0.2703151504217776,0,0.4451738883895248,1.141807314067282,0.2175135720119659,0,0.6131176067347484,0.9679035145229057,-0.2630805063809826,0,0.1990244069309676,0.7357648052831545,-0.5115086200926868,0,-0.0579635401841361,776.8498168498169,792.5641025641025,894.1025641025641,796.996336996337,661.6117216117216,-0.007690,0.012634,1.005554,0.628052,-1.263580,0.366364,419047.619048,103546666.666667,67779340.659341,122.585884,1,1,1,2,1,75.000000
2025-05-02 21:37:41.335,,,,,,,,,,,,,,,,,,,,,,,,,,,,,,,,,,,,,,,,,,/muse/elements/blink
2025-05-02 21:37:42.017,1.601810830402915,0.3555489962214162,0,0.3978359534994406,1.361917162419151,0.3736481954572214,0,0.4082642978092212,1.141807314067282,0.3136267185004625,0,0.7376750839858193,0.9679035145229057,-0.1428938592569868,0,0.2254382049558288,0.7357648052831545,-0.4946778102627077,0,-0.04299052484010263,802.2344322344322,792.1611721611722,742.6007326007326,778.0586080586081,682.967032967033,-0.013000,0.014771,1.008667,0.149536,-2.886047,-0.732727,419853.479853,103993919.413919,67908278.388278,123.657288,1,1,1,2,1,75.000000
2025-05-02 21:37:43.018,1.601810830402915,0.3334501716779901,0,0.3961332867915625,1.361917162419151,0.3897092826010243,0,0.45591920247563,1.141807314067282,0.3310941560205531,0,0.4497715259662965,0.9679035145229057,-0.04464503598557475,0,0.1412059733211754,0.7357648052831545,-0.6012576104483889,0,-0.051606511360848,820.3663003663004,794.5787545787546,952.5274725274726,784.1025641025641,503.2600732600733,-0.001465,0.012329,1.001465,-0.224304,-1.009369,-0.844879,418241.758242,103894798.534799,68038827.838828,123.909271,1,1,1,2,1,75.000000
2025-05-02 21:37:43.766,,,,,,,,,,,,,,,,,,,,,,,,,,,,,,,,,,,,,,,,,,/muse/elements/blink
2025-05-02 21:37:44.018,1.601810830402915,0.02125837611260191,0,0.4100953928190729,1.361917162419151,0.06794091207391627,0,0.3598995772296868,1.141807314067282,0.1047159183776592,0,0.4282164056587771,0.9679035145229057,-0.112227171128735,0,0.2845475621065623,0.7357648052831545,-0.6002417002838544,0,-0.07402036208255425,770.4029304029305,795.3846153846154,879.5970695970697,798.2051282051282,670.0732600732601,0.001709,0.017700,1.009094,0.807495,-1.712189,-0.201874,419853.479853,103469304.029304,67520659.340659,123.867981,1,1,1,2,1,75.000000
2025-05-02 21:37:45.019,1.601810830402915,0.1553698666081128,0,0.3397488921594548,1.361917162419151,-0.0674241308911202,0,0.02895566090880212,1.141807314067282,-0.1400289967597461,0,0.1013140563970618,0.9679035145229057,-0.1113502448096188,0,0.3984646855838295,0.7357648052831545,-0.4695572884325096,0,-0.114226108623222,762.7472527472528,788.9377289377289,743.4065934065934,784.1025641025641,808.2783882783883,-0.004822,0.018311,1.001587,0.448608,-1.689758,0.732727,419047.619048,103242051.282051,67124981.684982,125.761749,1,1,1,2,1,75.000000
2025-05-02 21:37:45.598,,,,,,,,,,,,,,,,,,,,,,,,,,,,,,,,,,,,,,,,,,/muse/elements/blink
2025-05-02 21:37:46.019,1.601810830402915,0.8715829038942878,0,0.07211115110756527,1.361917162419151,0.2240399120714415,0,-0.06434074292775879,1.141807314067282,0.4825729130713673,0,0.4787613988938552,0.9679035145229057,-0.1260394673826305,0,0.292848495293403,0.7357648052831545,-0.4341866070293569,0,-0.2142081396830812,663.6263736263736,811.9047619047619,937.2161172161173,770.4029304029305,510.9157509157509,-0.008362,0.019470,1.003662,0.500946,-1.600037,1.121521,418241.758242,103379047.619048,67249084.249084,125.370323,1,1,1,2,1,75.000000
2025-05-02 21:37:47.020,1.601810830402915,1.222551293722175,0,0.003180610431666864,1.361917162419151,0.6817686909224807,0,-0.09970345640670186,1.141807314067282,0.4675871288933443,0,0.4787613988938552,0.9679035145229057,-0.03878717143178666,0,0.2867815816952999,0.7357648052831545,-0.4563494292195652,0,-0.186766018477281,789.7435897435897,801.4285714285714,963.4065934065934,836.4835164835165,705.5311355311355,0.004578,0.020386,1.013245,1.233673,-3.244934,0.448608,419047.619048,103824688.644689,67636703.296703,123.556458,1,1,1,2,1,75.000000
2025-05-02 21:37:47.157,,,,,,,,,,,,,,,,,,,,,,,,,,,,,,,,,,,,,,,,,,/muse/elements/blink
2025-05-02 21:37:48.021,1.601810830402915,1.143572590705344,0,0.003180610431666864,1.361917162419151,0.7888292973583642,0,-0.09970345640670186,1.141807314067282,0.4609903133449981,0,0.4787613988938552,0.9679035145229057,-0.02537532591728483,0,0.2867815816952999,0.7357648052831545,-0.336639959830724,0,-0.186766018477281,814.7252747252747,782.4908424908425,803.4432234432235,797.8021978021978,700.6959706959707,0.001526,0.022095,1.007446,0.605621,-1.816864,0.418701,419853.479853,103671575.091575,67771282.051282,123.962776,1,1,1,2,1,75.000000
2025-05-02 21:37:49.022,1.601810830402915,0.4218179847236089,0,0.8276668138769411,1.361917162419151,0.009643865807720984,0,0.4829275270881768,1.141807314067282,0.1192075336915755,0,0.797756188265916,0.9679035145229057,-0.00678640661372483,0,0.1275991800475497,0.7357648052831545,-0.4277997817708579,0,-0.1363074965558773,814.7252747252747,779.6703296703297,844.1391941391942,792.1611721611722,674.5054945054945,-0.007874,0.018005,1.005066,0.456085,-1.936493,0.104675,418241.758242,103337948.717949,67510989.010989,121.287231,1,1,1,2,1,75.000000
2025-05-02 21:37:49.867,,,,,,,,,,,,,,,,,,,,,,,,,,,,,,,,,,,,,,,,,,/muse/elements/blink
2025-05-02 21:37:50.027,1.601810830402915,0.2448454866460835,0,0.7472698282987674,1.361917162419151,0.0681728267773207,0,0.6452283276025219,1.141807314067282,0.3849186489307083,0,0.8129709685301307,0.9679035145229057,0.1082906507452519,0,0.1926991720152036,0.7357648052831545,-0.3518713511964694,0,-0.114465716211567,785.3113553113553,787.3260073260074,887.2527472527473,800.2197802197802,688.6080586080586,-0.011047,0.016968,1.004822,-0.179443,0.231781,-1.278534,418241.758242,103415311.355311,67510989.010989,120.623703,1,1,1,2,1,75.000000
2025-05-02 21:37:51.027,1.601810830402915,0.3363364659923941,0,0.645450817116753,1.361917162419151,0.0434670114782704,0,0.7285064628548529,1.141807314067282,0.5037874754527331,0,0.4081362668298519,0.9679035145229057,-0.03008141421380419,0,0.2444589719831249,0.7357648052831545,-0.5268494589069435,0,-0.05594710642986563,805.4578754578755,805.0549450549451,735.3479853479854,786.5201465201466,747.8388278388279,-0.025024,0.015686,1.006165,0.523376,-1.233673,0.672913,419853.479853,103680439.560440,67671355.311355,122.171432,1,1,1,2,1,75.000000
2025-05-02 21:37:51.784,,,,,,,,,,,,,,,,,,,,,,,,,,,,,,,,,,,,,,,,,,/muse/elements/blink
2025-05-02 21:37:52.024,1.601810830402915,0.2280864372059188,0,0.6024179798891083,1.361917162419151,-0.1140495897881892,0,0.2716764891523141,1.141807314067282,0.440941237297336,0,0.4351756515724964,0.9679035145229057,0.09098651042932016,0,0.4448809053378167,0.7357648052831545,-0.5567577709885813,0,-0.1576414587978198,782.0879120879121,796.1904761904763,987.5824175824176,796.1904761904763,572.1611721611722,-0.020081,0.016846,1.002625,0.515900,-1.248627,0.396271,419047.619048,103713479.853480,67573040.293040,122.334183,1,1,1,2,1,75.000000
2025-05-02 21:37:53.023,1.601810830402915,0.1127431223826564,0,0.7161937195811781,1.361917162419151,0.1030619597986468,0,0.3809850393279235,1.141807314067282,0.6548535766219058,0,0.2928921902735913,0.9679035145229057,0.0783305112017709,0,0.5846166286597015,0.7357648052831545,-0.5149842723569434,0,-0.2147571283679556,801.4285714285714,783.2967032967033,857.8388278388279,848.5714285714286,744.2124542124542,-0.018677,0.014893,1.003967,0.844879,-1.510315,0.231781,416630.036630,103791648.351648,67682637.362637,124.220604,1,1,1,2,1,75.000000
2025-05-02 21:37:53.155,,,,,,,,,,,,,,,,,,,,,,,,,,,,,,,,,,,,,,,,,,/muse/elements/blink
2025-05-02 21:37:54.024,1.601810830402915,0.2938591962078487,0,0.7161937195811781,1.361917162419151,-0.04001187273746019,0,0.3809850393279235,1.141807314067282,0.2614546850667362,0,0.2928921902735913,0.9679035145229057,-0.096773978735676,0,0.5846166286597015,0.7357648052831545,-0.4397408825105364,0,-0.2147571283679556,852.6007326007326,801.8315018315019,758.7179487179487,807.4725274725275,927.948717948718,-0.015015,0.017517,1.008545,0.800018,-2.213135,0.186920,418241.758242,103808571.428571,67627838.827839,126.537918,1,1,1,2,1,75.000000
2025-05-02 21:37:55.030,1.601810830402915,0.3135121021793887,0,0.3757986136514647,1.361917162419151,-0.03230039376661442,0,-0.182890752063962,1.141807314067282,0.2481659216803541,0,0.4758680091430718,0.9679035145229057,-0.01317800894584667,0,0.3771096218449046,0.7357648052831545,-0.5574538921710125,0,-0.2031423255026222,822.7838827838829,799.8168498168499,904.981684981685,835.2747252747253,628.974358974359,-0.010559,0.020386,1.010803,0.523376,-2.646790,-0.261688,419047.619048,103716703.296703,67585128.205128,127.165321,1,1,1,2,1,75.000000
2025-05-02 21:37:55.065,,,,,,,,,,,,,,,,,,,,,,,,,,,,,,,,,,,,,,,,,,/muse/elements/blink
2025-05-02 21:37:56.031,1.601810830402915,0.2988681251258326,0,0.415610416061175,1.361917162419151,0.3257239086322504,0,-0.1290303490284768,1.141807314067282,0.4840508917005202,0,0.4680982890185625,0.9679035145229057,-0.1124044738360506,0,0.3787961550187479,0.7357648052831545,-0.4549333118883501,0,-0.1802779653665441,807.4725274725275,792.5641025641025,813.1135531135532,790.952380952381,731.7216117216118,-0.020264,0.016235,1.006226,0.575714,-2.063599,-0.112152,415018.315018,103481391.941392,67391721.611722,126.578880,1,1,1,2,1,75.000000
2025-05-02 21:37:57.033,1.26425827416606,-0.1312421342618189,0,0.3574730021551735,1.211246676601517,-0.1600345139080871,0,0.2636268442460373,1.539428196029718,0.3105115097359708,0,0.4371591238091926,1.140919866911563,-0.1822140562860812,0,0.3956609459480164,0.501612047873453,-0.526571388552218,0,-0.3824977139659895,813.1135531135532,798.2051282051282,847.3626373626374,790.5494505494506,662.4175824175825,-0.013428,0.014099,1.009277,0.381317,-2.011261,-0.291595,416630.036630,103541025.641026,67312747.252747,123.717262,1,1,1,2,1,75.000000
2025-05-02 21:37:57.407,,,,,,,,,,,,,,,,,,,,,,,,,,,,,,,,,,,,,,,,,,/muse/elements/blink
2025-05-02 21:37:58.033,1.161006876465491,0.5028068784019212,0,0.3556388128048611,1.345274297471609,0.3532584609565738,0,0.2608456237721347,1.521645591196738,0.5182898169139544,0,0.4247361145949976,1.103767591845244,-0.1080692787972269,0,0.4876927036844808,0.4416233389304726,-0.4960593043064535,0,-0.3968418880815852,805.4578754578755,793.3699633699634,954.1391941391942,791.3553113553114,612.4542124542124,-0.016174,0.015320,1.008545,0.448608,-2.699127,-0.157013,419047.619048,103636923.076923,67326446.886447,123.778786,1,1,1,2,1,75.000000
2025-05-02 21:37:59.035,1.18629428336931,0.4646246406314004,0,0.4667506159190203,1.426195809441805,0.3456664235678829,0,0.146521167314716,1.356675539206627,0.5341227802782181,0,0.6243230046124216,1.102047613902255,-0.02586352985944065,0,0.360099921767109,0.4055685373363578,-0.4694687323870395,0,-0.0457814007183556,694.2490842490843,808.2783882783883,844.1391941391942,689.0109890109891,876.3736263736264,-0.013794,0.010193,1.003906,0.942078,-2.153320,-0.216827,414212.454212,103786007.326007,67572234.432234,120.926186,1,1,1,2,1,75.000000
2025-05-02 21:37:59.238,,,,,,,,,,,,,,,,,,,,,,,,,,,,,,,,,,,,,,,,,,/muse/elements/blink
2025-05-02 21:38:00.025,1.18629428336931,0.5066985800541811,0,0.4667506159190203,1.426195809441805,0.2015855226333498,0,0.146521167314716,1.356675539206627,0.3868585902165939,0,0.6243230046124216,1.102047613902255,-0.03754282597847897,0,0.360099921767109,0.4055685373363578,-0.4856185323802065,0,-0.0457814007183556,732.1245421245421,813.919413919414,772.8205128205128,702.3076923076924,618.0952380952381,-0.007202,0.012085,1.009155,1.121521,-2.325287,-0.059814,417435.897436,103716703.296703,67546446.886447,121.042000,1,1,1,2,1,75.000000
2025-05-02 21:38:00.239,,,,,,,,,,,,,,,,,,,,,,,,,,,,,,,,,,,,,,,,,,/muse/elements/blink
2025-05-02 21:38:00.938,,,,,,,,,,,,,,,,,,,,,,,,,,,,,,,,,,,,,,,,,,/muse/elements/blink
2025-05-02 21:38:01.031,1.18629428336931,0.4961490068613545,0,0.5099711658426904,1.426195809441805,0.3342033307241551,0,0.1197517543015377,1.356675539206627,0.4528064529860086,0,0.4986268550475322,1.102047613902255,-0.04532334960615431,0,0.3553545680598031,0.4055685373363578,-0.4559848984948208,0,-0.03807114714910531,880,803.040293040293,959.3772893772895,821.5750915750916,617.6923076923077,-0.006409,0.018311,1.008545,0.590668,-1.457977,0.822449,419047.619048,103788424.908425,67461025.641026,122.584404,1,1,1,2,1,75.000000
2025-05-02 21:38:02.032,1.18629428336931,0.3364877969505056,0,0.5099711658426904,1.426195809441805,0.475331592348826,0,0.1197517543015377,1.356675539206627,0.5780782411195702,0,0.4986268550475322,1.102047613902255,-0.0905986386206878,0,0.3553545680598031,0.4055685373363578,-0.4118410693820997,0,-0.03807114714910531,824.7985347985348,799.4139194139194,895.3113553113553,797.8021978021978,694.2490842490843,-0.014832,0.012329,1.005371,0.052338,-0.628052,-0.986938,414212.454212,103915750.915751,67661684.981685,126.215012,1,2,1,2,2,75.000000
2025-05-02 21:38:03.030,1.18629428336931,-0.1034951567732218,0,0.5231448200009899,1.426195809441805,-0.2851601142285411,0,0.1110268622329684,1.356675539206627,0.06063517910662693,0,0.7234374422394514,1.102047613902255,-0.1590250015038507,0,0.3089980283894224,0.4055685373363578,-0.4402164090220648,0,0.009014918543647932,732.5274725274726,802.2344322344322,785.7142857142858,784.1025641025641,824.3956043956044,-0.015137,0.015259,1.003906,0.471039,-1.532745,0.456085,417435.897436,103942344.322344,67506959.706960,123.662315,1,1,1,2,1,75.000000
2025-05-02 21:38:03.362,,,,,,,,,,,,,,,,,,,,,,,,,,,,,,,,,,,,,,,,,,/muse/elements/blink
2025-05-02 21:38:04.026,1.18629428336931,0.6342977314951614,0,0.3442727651557914,1.426195809441805,0.2093298751835992,0,0.3648770756120129,1.356675539206627,0.4310649084979503,0,0.7299704358977761,1.102047613902255,0.003084520929185694,0,0.2545337515427999,0.4055685373363578,-0.5018913132471995,0,0.03334182375603342,827.6190476190476,800.6227106227107,941.6483516483516,786.9230769230769,628.974358974359,-0.018372,0.013428,1.006409,0.643005,-2.026215,0.209351,419047.619048,103717509.157509,67229743.589744,131.231415,1,1,1,2,1,75.000000
2025-05-02 21:38:05.033,1.799812863971003,1.025316617281835,0,0.2624632062392403,1.806704987784049,0.4186726570356854,0,0.710104281347275,1.267184164380464,0.4133283041031337,0,0.7585911812581755,1.227868959462102,-0.05091443652648791,0,0.273027861685844,0.7435967698062822,-0.3783758704742738,0,-0.224820107760052,719.6336996336996,814.7252747252747,920.6959706959707,732.1245421245421,722.8571428571429,-0.018066,0.018127,1.005249,0.643005,-2.489777,0.478516,412600.732601,103482197.802198,67085494.505495,131.231415,1,1,1,2,1,75.000000
2025-05-02 21:38:05.194,,,,,,,,,,,,,,,,,,,,,,,,,,,,,,,,,,,,,,,,,,/muse/elements/blink
2025-05-02 21:38:06.026,1.799812863971003,1.033523186846102,0,0.2624632062392403,1.806704987784049,0.3222776124147302,0,0.710104281347275,1.267184164380464,0.3351207729568077,0,0.7585911812581755,1.227868959462102,-0.1420044777803406,0,0.273027861685844,0.7435967698062822,-0.3231953410773402,0,-0.224820107760052,819.96336996337,770,885.6410256410256,797.3992673992674,578.2051282051282,-0.009277,0.017090,1.005127,0.157013,-0.949554,-0.351410,415018.315018,103316996.336996,66837289.377289,128.987366,1,1,1,2,1,75.000000
2025-05-02 21:38:06.342,,,,,,,,,,,,,,,,,,,,,,,,,,,,,,,,,,,,,,,,,,/muse/elements/blink
2025-05-02 21:38:07.026,1.799812863971003,0.5773804661261962,0,0.2851394094100049,1.806704987784049,0.308920045057542,0,0.7247497660820833,1.267184164380464,0.3555988347548849,0,0.7281652749879788,1.227868959462102,0.03852932475022713,0,0.261265349480093,0.7435967698062822,-0.4464801169340367,0,-0.2277484238031497,800.6227106227107,797.8021978021978,956.5567765567766,814.3223443223443,565.3113553113553,-0.008057,0.011719,1.008118,0.186920,-0.553284,-1.039276,417435.897436,103297655.677656,66920293.040293,127.593567,1,1,1,2,1,75.000000
2025-05-02 21:38:08.044,1.799812863971003,0.3222699825842653,0,0.3152145245516867,1.806704987784049,0.2192998007568132,0,0.2912196310155445,1.267184164380464,0.320856546010198,0,0.698124981776756,1.227868959462102,-0.01703391381553127,0,0.2812027216200822,0.7435967698062822,-0.5205488567718214,0,-0.4482062519509021,745.8241758241759,784.9084249084249,892.0879120879121,806.6666666666667,825.6043956043957,-0.009949,0.012512,0.999573,0.224304,-1.114044,-0.605621,412600.732601,103348424.908425,66990402.930403,124.221817,1,1,1,2,1,75.000000
2025-05-02 21:38:08.579,,,,,,,,,,,,,,,,,,,,,,,,,,,,,,,,,,,,,,,,,,/muse/elements/blink
2025-05-02 21:38:09.027,1.799812863971003,0.1340132495575486,0,0.3281320494961982,1.806704987784049,-0.3141426575821826,0,0.317475533090919,1.267184164380464,-0.1034238747528079,0,0.698695851843125,1.227868959462102,-0.2217414825226789,0,0.2908408878835056,0.7435967698062822,-0.3827689712407177,0,-0.3967774223521192,828.8278388278388,792.967032967033,817.1428571428571,781.6849816849817,609.2307692307693,-0.006348,0.009338,1.003784,0.074768,-1.398163,0.014954,413406.593407,103221904.761905,66967032.967033,116.766403,1,1,1,2,1,75.000000
2025-05-02 21:38:10.027,1.799812863971003,0.2302145244395399,0,0.6265782788121829,1.806704987784049,-0.7617993335267124,0,0.2653442905725554,1.267184164380464,-0.01734408684512402,0,0.5934286622302143,1.227868959462102,-0.1791833233386602,0,0.2477691529497076,0.7435967698062822,-0.5752135816605652,0,-0.09346603373802786,809.8901098901099,804.2490842490843,1013.772893772894,806.2637362637363,601.5750915750916,-0.008850,0.009827,1.002747,0.067291,-0.343933,-1.308441,417435.897436,103148571.428571,66782490.842491,114.118042,1,1,1,2,1,75.000000
2025-05-02 21:38:10.324,,,,,,,,,,,,,,,,,,,,,,,,,,,,,,,,,,,,,,,,,,/muse/elements/blink
2025-05-02 21:38:11.038,1.799812863971003,0.305720793633616,0,0.613093882402699,1.806704987784049,-0.08838120168522855,0,0.2244434776393829,1.267184164380464,0.2308818441577051,0,0.6721716136016004,1.227868959462102,-0.06248811408355183,0,0.2567770129449541,0.7435967698062822,-0.4047618829250788,0,-0.07453444887973587,722.0512820512821,811.0989010989011,907.8021978021978,798.6080586080586,615.2747252747253,-0.008667,0.011292,1.011475,0.044861,-1.697235,-0.515900,410989.010989,103001904.761905,66655164.835165,115.684166,1,1,1,2,1,75.000000
2025-05-02 21:38:11.900,,,,,,,,,,,,,,,,,,,,,,,,,,,,,,,,,,,,,,,,,,/muse/elements/blink
2025-05-02 21:38:12.028,1.799812863971003,0.5312800422245887,0,0.4767239782349315,1.806704987784049,0.009904074847323006,0,0.2083554170404728,1.267184164380464,0.1622592449608078,0,0.6664444330014695,1.227868959462102,-0.1580447823294324,0,0.2444664993038083,0.7435967698062822,-0.3970753555888373,0,-0.0709756123813412,807.0695970695971,798.2051282051282,682.967032967033,798.2051282051282,799.8168498168499,0.000122,0.008362,1.006714,0.388794,-1.629944,0.194397,412600.732601,103033333.333333,66668058.608059,118.552055,1,1,1,2,1,75.000000
2025-05-02 21:38:12.945,,,,,,,,,,,,,,,,,,,,,,,,,,,,,,,,,,,,,,,,,,/muse/elements/blink
2025-05-02 21:38:13.028,1.799812863971003,0.7203735689448656,0,0.4767239782349315,1.806704987784049,0.3457545147003721,0,0.2083554170404728,1.267184164380464,0.1531391520717476,0,0.6664444330014695,1.227868959462102,-0.1218307355832506,0,0.2444664993038083,0.7435967698062822,-0.5801190323413189,0,-0.0709756123813412,786.9230769230769,793.3699633699634,976.3003663003664,822.7838827838829,512.1245421245421,0.000916,0.016846,1.005676,0.635529,-1.966400,0.792542,413406.593407,102989010.989011,65970183.150183,124.335617,1,2,1,2,2,75.000000
2025-05-02 21:38:14.028,1.799812863971003,0.3518961882733662,0,0.4767239782349315,1.806704987784049,-0.01353057358416361,0,0.2083554170404728,1.267184164380464,0.2939046571801528,0,0.6664444330014695,1.227868959462102,-0.08308995914116653,0,0.2444664993038083,0.7435967698062822,-0.4550329439806127,0,-0.0709756123813412,761.941391941392,794.1758241758242,855.4212454212454,803.4432234432235,655.5677655677656,-0.003296,0.015442,1.011169,0.740204,-1.338348,0.276642,410183.150183,102812527.472527,65268278.388278,122.497421,1,2,1,2,2,75.000000
2025-05-02 21:38:15.028,1.799812863971003,-0.05032636862561159,0,0.7524057344054397,1.806704987784049,-0.1603603421183015,0,0.5032839420414239,1.267184164380464,0.1125789720341821,0,0.7422650241706307,1.227868959462102,-0.2397160671188475,0,0.2881191319662933,0.7435967698062822,-0.6535603246850687,0,0.007444200029808382,769.1941391941392,796.1904761904763,704.3223443223443,769.1941391941392,721.2454212454213,-0.005432,0.015320,1.002258,0.373840,-1.906586,0.321503,413406.593407,102959194.139194,66578608.058608,118.599037,1,1,1,2,1,75.000000
2025-05-02 21:38:15.376,,,,,,,,,,,,,,,,,,,,,,,,,,,,,,,,,,,,,,,,,,/muse/elements/blink
2025-05-02 21:38:16.028,1.799812863971003,-0.06494965608719543,0,0.5740109332454333,1.806704987784049,0.2779086707827104,0,0.4484168277598984,1.267184164380464,0.2654082574657384,0,0.5240451549022478,1.227868959462102,-0.1667858073411853,0,0.2805326652406075,0.7435967698062822,-0.6398992516722254,0,0.01349846876890145,759.92673992674,801.8315018315019,910.2197802197802,790.5494505494506,521.3919413919414,0.001221,0.022644,1.009094,1.031799,-1.988831,0.807495,415018.315018,102759340.659341,66699487.179487,118.800827,1,1,1,2,1,75.000000
2025-05-02 21:38:17.028,1.799812863971003,0.06201370376387951,0,0.6497761466437388,1.806704987784049,0.28228084878354,0,0.4444835732677595,1.267184164380464,0.261101057467748,0,0.5740147093040718,1.227868959462102,-0.1646234374085587,0,0.2174665084569948,0.7435967698062822,-0.4639465775853265,0,-0.01096653718661088,791.7582417582418,809.4871794871796,860.2564102564103,806.6666666666667,736.959706959707,-0.009216,0.011963,1.004150,0.336456,-1.368256,0.515900,411794.871795,102807692.307692,66574578.754579,119.028999,1,1,1,2,1,75.000000
2025-05-02 21:38:17.289,,,,,,,,,,,,,,,,,,,,,,,,,,,,,,,,,,,,,,,,,,/muse/elements/blink
2025-05-02 21:38:18.028,1.799812863971003,0.3851561377386941,0,0.6497761466437388,1.806704987784049,0.1729261873830135,0,0.4444835732677595,1.267184164380464,0.1946120565083576,0,0.5740147093040718,1.227868959462102,-0.1690051845452737,0,0.2174665084569948,0.7435967698062822,-0.443951207501025,0,-0.01096653718661088,740.1831501831502,796.996336996337,823.992673992674,791.3553113553114,688.2051282051282,-0.011047,0.012878,1.005615,0.097198,-0.971985,-0.336456,411794.871795,102930183.150183,66714798.534799,119.337234,1,1,1,2,1,75.000000
2025-05-02 21:38:18.419,,,,,,,,,,,,,,,,,,,,,,,,,,,,,,,,,,,,,,,,,,/muse/elements/blink
2025-05-02 21:38:19.028,1.799812863971003,0.6399293931888808,0,0.6799901915960611,1.806704987784049,0.5669064458394956,0,0.5143907936448794,1.267184164380464,0.1551269169291904,0,0.561212872781235,1.227868959462102,-0.02211920276307277,0,0.1875025287728305,0.7435967698062822,-0.4784858490402893,0,0.009271329547990309,794.1758241758242,803.4432234432235,911.0256410256411,794.981684981685,473.4432234432235,-0.013611,0.015503,0.998535,-0.089722,-1.054230,-0.792542,413406.593407,103181611.721612,66896923.076923,118.845139,1,1,1,2,1,75.000000
2025-05-02 21:38:19.821,,,,,,,,,,,,,,,,,,,,,,,,,,,,,,,,,,,,,,,,,,/muse/elements/blink
2025-05-02 21:38:20.028,1.799812863971003,0.6424443429546394,0,0.6799901915960611,1.806704987784049,0.5321361576684863,0,0.5143907936448794,1.267184164380464,0.237617313526552,0,0.561212872781235,1.227868959462102,0.01031750516496713,0,0.1875025287728305,0.7435967698062822,-0.500609058697489,0,0.009271329547990309,841.7216117216118,799.8168498168499,884.0293040293041,867.1062271062272,800.2197802197802,-0.012146,0.015991,0.999634,0.441132,-1.181335,0.844879,412600.732601,103395970.695971,67098388.278388,118.400078,1,2,1,2,2,75.000000
2025-05-02 21:38:20.054,,,,,,,,,,,,,,,,,,,,,,,,,,,,,,,,,,,,,,,,,,/muse/elements/blink
2025-05-02 21:38:21.028,1.799812863971003,0.3872108426251054,0,0.6799901915960611,1.806704987784049,0.2953752795695674,0,0.5143907936448794,1.267184164380464,0.4118951334433006,0,0.561212872781235,1.227868959462102,0.008706143521763713,0,0.1875025287728305,0.7435967698062822,-0.4727267244254453,0,0.009271329547990309,708.7545787545788,803.040293040293,808.6813186813187,795.7875457875458,624.5421245421246,-0.005371,0.014771,1.001343,0.485992,-1.106567,0.508423,412600.732601,103271868.131868,67293406.593407,122.140121,1,2,1,2,2,75.000000
2025-05-02 21:38:21.794,,,,,,,,,,,,,,,,,,,,,,,,,,,,,,,,,,,,,,,,,,/muse/elements/blink
2025-05-02 21:38:22.029,1.799812863971003,0.01052210721948013,0,0.7098558786040333,1.806704987784049,-0.02079343685687444,0,0.2967872482519892,1.267184164380464,0.4442027605257838,0,0.3316046666165993,1.227868959462102,-0.09817094283660889,0,0.1358699360286898,0.7435967698062822,-0.6163492072521362,0,-0.07493301876266413,746.2271062271062,799.0109890109891,961.7948717948718,794.5787545787546,509.7069597069597,-0.014221,0.008423,1.000793,0.074768,-0.732727,-0.336456,414212.454212,103143736.263736,67210402.930403,121.222931,1,1,1,2,1,75.000000
2025-05-02 21:38:23.029,1.799812863971003,0.4285006130558002,0,0.7098558786040333,1.806704987784049,0.3516023548912305,0,0.2967872482519892,1.267184164380464,0.4960181452979247,0,0.3316046666165993,1.227868959462102,-0.2019225157853455,0,0.1358699360286898,0.7435967698062822,-0.6490298760951799,0,-0.07493301876266413,719.2307692307693,792.1611721611722,590.6959706959707,834.0659340659341,1222.893772893773,-0.010193,0.009338,1.005432,0.044861,-0.770111,-1.016846,412600.732601,103267032.967033,67306300.366300,120.289993,1,1,1,2,1,75.000000
2025-05-02 21:38:23.118,,,,,,,,,,,,,,,,,,,,,,,,,,,,,,,,,,,,,,,,,,/muse/elements/blink
2025-05-02 21:38:23.995,,,,,,,,,,,,,,,,,,,,,,,,,,,,,,,,,,,,,,,,,,/muse/elements/blink
2025-05-02 21:38:24.029,1.799812863971003,0.1977745521108376,0,0.7098558786040333,1.806704987784049,0.2381544596658413,0,0.2967872482519892,1.267184164380464,0.2796475132464689,0,0.3316046666165993,1.227868959462102,-0.1264435726962136,0,0.1358699360286898,0.7435967698062822,-0.5779053866053353,0,-0.07493301876266413,880.4029304029305,794.5787545787546,831.2454212454213,871.941391941392,719.2307692307693,-0.017944,0.012939,1.001587,0.807495,-0.979462,0.112152,411794.871795,103572454.212454,67476336.996337,119.738876,1,1,1,2,1,75.000000
2025-05-02 21:38:25.029,1.799812863971003,0.5312854861412916,0,0.7098558786040333,1.806704987784049,0.2463970090486744,0,0.2967872482519892,1.267184164380464,0.2806409434796091,0,0.3316046666165993,1.227868959462102,-0.2337514672053579,0,0.1358699360286898,0.7435967698062822,-0.4622017913905484,0,-0.07493301876266413,736.959706959707,799.8168498168499,957.3626373626374,797.8021978021978,550,-0.015381,0.010132,1.006165,0.485992,-0.852356,0.463562,414212.454212,103748131.868132,67415897.435897,120.971161,1,2,1,2,2,75.000000
2025-05-02 21:38:25.543,,,,,,,,,,,,,,,,,,,,,,,,,,,,,,,,,,,,,,,,,,/muse/elements/blink
2025-05-02 21:38:26.029,1.799812863971003,0.3461714128981897,0,0.7098558786040333,1.806704987784049,0.2260996260090222,0,0.2967872482519892,1.267184164380464,0.2172605748970109,0,0.3316046666165993,1.227868959462102,-0.1521967372131504,0,0.1358699360286898,0.7435967698062822,-0.3690793343589942,0,-0.07493301876266413,761.1355311355312,813.1135531135532,894.5054945054945,804.6520146520147,720.0366300366301,-0.001160,0.014099,1.002991,1.166382,-2.310333,-0.343933,415018.315018,103579706.959707,67524688.644689,121.378471,1,2,1,2,2,75.000000
2025-05-02 21:38:26.670,,,,,,,,,,,,,,,,,,,,,,,,,,,,,,,,,,,,,,,,,,/muse/elements/blink
2025-05-02 21:38:27.029,1.799812863971003,0.6041464790346692,0,0.7098558786040333,1.806704987784049,0.3789670718768267,0,0.2967872482519892,1.267184164380464,0.3957084884328026,0,0.3316046666165993,1.227868959462102,-0.125795896010919,0,0.1358699360286898,0.7435967698062822,-0.4108209421521582,0,-0.07493301876266413,809.4871794871796,806.6666666666667,874.7619047619048,799.8168498168499,567.7289377289377,-0.005005,0.000488,1.001587,0.254211,-0.523376,-0.411224,413406.593407,103043003.663004,67081465.201465,125.313683,1,2,1,2,2,75.000000
2025-05-02 21:38:28.029,1.799812863971003,0.09562973445075985,0,0.7098558786040333,1.806704987784049,0.09687839668887231,0,0.2967872482519892,1.267184164380464,0.3968756037805909,0,0.3316046666165993,1.227868959462102,-0.1910779325675348,0,0.1358699360286898,0.7435967698062822,-0.5123242291949032,0,-0.07493301876266413,770.4029304029305,798.2051282051282,916.6666666666667,786.9230769230769,525.018315018315,0.009094,-0.004211,1.004639,1.622467,-2.415009,0.613098,414212.454212,103043003.663004,67139487.179487,124.628471,1,2,1,2,2,75.000000
2025-05-02 21:38:28.247,,,,,,,,,,,,,,,,,,,,,,,,,,,,,,,,,,,,,,,,,,/muse/elements/blink
2025-05-02 21:38:28.607,,,,,,,,,,,,,,,,,,,,,,,,,,,,,,,,,,,,,,,,,,/muse/elements/blink
2025-05-02 21:38:29.029,1.799812863971003,0.3121975951317056,0,0.7098558786040333,1.806704987784049,0.137916704516115,0,0.2967872482519892,1.267184164380464,0.1947532241122641,0,0.3316046666165993,1.227868959462102,-0.1283483659120386,0,0.1358699360286898,0.7435967698062822,-0.4625181858249518,0,-0.07493301876266413,843.3333333333334,777.2527472527473,772.8205128205128,782.4908424908425,848.1684981684982,0.020691,0.018005,1.003662,0.687866,-2.071075,0.396271,414212.454212,103480586.080586,67444102.564103,126.827423,1,2,1,2,2,75.000000
2025-05-02 21:38:30.029,1.799812863971003,0.9455281976468717,0,0.7098558786040333,1.806704987784049,0.2034672193623481,0,0.2967872482519892,1.267184164380464,0.03410064687752414,0,0.3316046666165993,1.227868959462102,-0.08736653797815994,0,0.1358699360286898,0.7435967698062822,-0.4076569943668906,0,-0.07493301876266413,731.7216117216118,830.0366300366301,894.5054945054945,788.9377289377289,669.2673992673992,0.011780,0.023132,1.007263,0.426178,-0.814972,0.112152,412600.732601,104064029.304029,68051721.611722,126.411705,1,2,1,2,2,75.000000
2025-05-02 21:38:30.627,,,,,,,,,,,,,,,,,,,,,,,,,,,,,,,,,,,,,,,,,,/muse/elements/blink
2025-05-02 21:38:31.029,1.799812863971003,1.133520887888071,0,0.4653841860956773,1.806704987784049,0.2366912724729517,0,0.2512388161030255,1.267184164380464,0.4327801988523824,0,0.6573208695281985,1.227868959462102,-0.03684143281814701,0,0.3881519844219287,0.7435967698062822,-0.4780640634748697,0,-0.3429165783477879,857.032967032967,794.1758241758242,815.5311355311355,779.6703296703297,829.6336996336996,0.015198,0.023865,1.005798,0.358887,-3.028107,-0.628052,415018.315018,104155091.575092,68266886.446886,121.996429,1,1,1,2,1,75.000000
2025-05-02 21:38:32.029,1.799812863971003,0.7743839795675657,0,0.4773710302363202,1.806704987784049,0.1799444325162039,0,0.2422982991121652,1.267184164380464,0.4302592951497262,0,0.6547670698203679,1.227868959462102,0.01666491953955244,0,0.4357480735854571,0.7435967698062822,-0.6625496767872441,0,-0.4228899400661053,634.2124542124542,801.8315018315019,820.3663003663004,672.0879120879121,724.8717948717949,-0.002686,0.019470,1.006836,0.710297,-2.975769,-0.134583,415824.175824,103544249.084249,67946153.846154,121.845016,1,1,1,2,1,75.000000
2025-05-02 21:38:32.157,,,,,,,,,,,,,,,,,,,,,,,,,,,,,,,,,,,,,,,,,,/muse/elements/blink
2025-05-02 21:38:33.029,1.799812863971003,0.7484383385994802,0,0.4773710302363202,1.806704987784049,0.3156919304106904,0,0.2422982991121652,1.267184164380464,0.1914518316964161,0,0.6547670698203679,1.227868959462102,-0.09788895577487809,0,0.4357480735854571,0.7435967698062822,-0.6219687835986687,0,-0.4228899400661053,773.6263736263736,798.6080586080586,824.7985347985348,796.996336996337,649.92673992674,0.014038,0.020264,1.004639,1.091614,-1.600037,0.829926,411794.871795,102821391.941392,67066959.706960,123.605431,1,1,1,2,1,75.000000
2025-05-02 21:38:34.029,1.799812863971003,0.3990616883650676,0,0.4877816367656549,1.806704987784049,0.07864017368998522,0,-0.01338297900811043,1.267184164380464,0.1297137881024476,0,0.3781070618702043,1.227868959462102,-0.2244690661313476,0,0.06791611973163302,0.7435967698062822,-0.4439103940986124,0,-0.03146582787735992,746.2271062271062,797.3992673992674,929.1575091575091,793.7728937728938,552.8205128205128,0.012817,0.020935,1.003845,0.710297,-1.001892,1.016846,412600.732601,102819780.219780,66831648.351648,126.756538,1,2,1,2,2,75.000000
2025-05-02 21:38:34.357,,,,,,,,,,,,,,,,,,,,,,,,,,,,,,,,,,,,,,,,,,/muse/elements/blink
2025-05-02 21:38:35.029,1.799812863971003,0.4712280787917723,0,0.674277233162266,1.806704987784049,0.4934250032296739,0,0.05527661531591611,1.267184164380464,0.2722647046999775,0,0.4060382493754627,1.227868959462102,-0.1846597347943537,0,0.08059694706409738,0.7435967698062822,-0.6465061815686737,0,-0.02877013288171276,711.978021978022,804.2490842490843,844.9450549450549,809.0842490842491,726.0805860805862,0.003540,0.018005,1.008179,0.403748,-1.555176,-0.171967,415018.315018,103087326.007326,66981538.461538,126.369408,1,1,1,2,1,75.000000
2025-05-02 21:38:36.028,1.799812863971003,0.4602823555478294,0,0.754784418986597,1.806704987784049,0.4431535336585119,0,0.07053301512585192,1.267184164380464,0.1545460584339531,0,0.4060382493754627,1.227868959462102,-0.105377325140735,0,0.08494195175448557,0.7435967698062822,-0.6606241170552225,0,-0.02047565913092478,819.96336996337,793.3699633699634,867.5091575091575,839.7069597069598,695.8608058608058,0.006653,0.019714,1.006897,0.657959,-2.437439,-0.239258,412600.732601,103413699.633700,67297435.897436,126.281593,1,1,1,2,1,75.000000
2025-05-02 21:38:36.102,,,,,,,,,,,,,,,,,,,,,,,,,,,,,,,,,,,,,,,,,,/muse/elements/blink
2025-05-02 21:38:36.271,,,,,,,,,,,,,,,,,,,,,,,,,,,,,,,,,,,,,,,,,,/muse/elements/blink
2025-05-02 21:38:37.029,1.799812863971003,0.2792998929371024,0,0.754784418986597,1.806704987784049,0.3409736727364169,0,0.07053301512585192,1.267184164380464,0.3634166119484538,0,0.4060382493754627,1.227868959462102,-0.1578123510979597,0,0.08494195175448557,0.7435967698062822,-0.5955265033269828,0,-0.02047565913092478,778.0586080586081,797.3992673992674,537.9120879120879,780.0732600732601,1337.326007326007,-0.006226,0.020508,1.009705,0.314026,-1.300964,-0.134583,413406.593407,103304102.564103,67188644.688645,123.133408,1,2,1,2,2,75.000000
2025-05-02 21:38:37.741,,,,,,,,,,,,,,,,,,,,,,,,,,,,,,,,,,,,,,,,,,/muse/elements/blink
2025-05-02 21:38:37.912,,,,,,,,,,,,,,,,,,,,,,,,,,,,,,,,,,,,,,,,,,/muse/elements/blink
2025-05-02 21:38:38.029,1.799812863971003,0.1757950161632382,0,0.754784418986597,1.806704987784049,0.2705108174042131,0,0.07053301512585192,1.267184164380464,0.3880245775008401,0,0.4060382493754627,1.227868959462102,-0.05470576485843456,0,0.08494195175448557,0.7435967698062822,-0.5575804173715297,0,-0.02047565913092478,781.2820512820513,798.6080586080586,867.9120879120879,813.1135531135532,726.0805860805862,-0.010193,0.013916,1.009155,0.254211,-0.299072,-0.919647,416630.036630,103009157.509158,66938827.838828,116.772346,1,2,1,2,2,75.000000
2025-05-02 21:38:38.336,,,,,,,,,,,,,,,,,,,,,,,,,,,,,,,,,,,,,,,,,,/muse/elements/blink
2025-05-02 21:38:39.029,1.799812863971003,0.5364039080712959,0,0.754784418986597,1.806704987784049,0.5357409697034443,0,0.07053301512585192,1.267184164380464,0.4408360979810322,0,0.4060382493754627,1.227868959462102,0.0005629406765340193,0,0.08494195175448557,0.7435967698062822,-0.4321307532881062,0,-0.02047565913092478,826.4102564102565,805.0549450549451,1046.410256410256,808.6813186813187,629.3772893772893,-0.002197,0.020325,1.007812,0.643005,-0.500946,-0.343933,419853.479853,106339780.219780,72722490.842491,111.870293,1,2,1,2,2,75.000000
2025-05-02 21:38:39.317,,,,,,,,,,,,,,,,,,,,,,,,,,,,,,,,,,,,,,,,,,/muse/elements/blink
2025-05-02 21:38:40.029,1.799812863971003,0.7238044717023489,0,0.754784418986597,1.806704987784049,0.2430177770314763,0,0.07053301512585192,1.267184164380464,0.3562974977302018,0,0.4060382493754627,1.227868959462102,0.1162680271242665,0,0.08494195175448557,0.7435967698062822,-0.04237055105761739,0,-0.02047565913092478,771.2087912087912,806.6666666666667,942.8571428571429,786.1172161172161,644.2857142857143,-0.002380,0.021057,1.006897,0.366364,-0.164490,-0.291595,408571.428571,101923663.003663,64825860.805861,107.949455,1,2,1,2,2,75.000000
2025-05-02 21:38:40.529,,,,,,,,,,,,,,,,,,,,,,,,,,,,,,,,,,,,,,,,,,/muse/elements/blink
2025-05-02 21:38:41.029,1.799812863971003,0.7368843622846771,0,0.754784418986597,1.806704987784049,0.3675388873586697,0,0.07053301512585192,1.267184164380464,0.4653529189362071,0,0.4060382493754627,1.227868959462102,0.07958976989204966,0,0.08494195175448557,0.7435967698062822,-0.1168632130374831,0,-0.02047565913092478,776.4468864468864,868.3150183150184,877.5824175824176,831.6483516483516,836.0805860805862,-0.002380,0.018005,1.006287,0.979462,-0.777588,1.158905,412600.732601,102136410.256410,64144102.564103,108.705208,1,2,1,2,2,75.000000
2025-05-02 21:38:41.893,,,,,,,,,,,,,,,,,,,,,,,,,,,,,,,,,,,,,,,,,,/muse/elements/blink
2025-05-02 21:38:42.029,1.799812863971003,0.8923769289837317,0,0.754784418986597,1.806704987784049,0.6209735669369111,0,0.07053301512585192,1.267184164380464,0.4186549506788652,0,0.4060382493754627,1.227868959462102,0.02665615499749746,0,0.08494195175448557,0.7435967698062822,-0.2923340986858506,0,-0.02047565913092478,761.1355311355312,788.5347985347986,917.0695970695971,824.3956043956044,591.5018315018315,-0.003967,0.017578,1.007385,0.418701,-0.904694,0.022430,410989.010989,102324175.824176,64952380.952381,108.705208,1,2,1,2,2,75.000000
2025-05-02 21:38:43.029,1.799812863971003,0.465080969185049,0,0.754784418986597,1.806704987784049,-0.1186531842750369,0,0.07053301512585192,1.267184164380464,-0.5906576913660121,0,0.4060382493754627,1.227868959462102,-0.2169015175356249,0,0.08494195175448557,0.7435967698062822,-0.4209958966872395,0,-0.02047565913092478,747.032967032967,790.952380952381,916.6666666666667,790.1465201465202,548.3882783882784,-0.005066,0.019165,1.000793,1.181335,-1.816864,0.426178,410989.010989,102120293.040293,65089377.289377,126.144775,1,2,1,1,2,75.000000
2025-05-02 21:38:43.298,,,,,,,,,,,,,,,,,,,,,,,,,,,,,,,,,,,,,,,,,,/muse/elements/blink
2025-05-02 21:38:44.029,1.799812863971003,0.6675007802858557,0,0.754784418986597,1.806704987784049,0.2379633341708653,0,0.07053301512585192,1.267184164380464,0.4517768083269562,0,0.4060382493754627,1.227868959462102,-0.1357885170585705,0,0.08494195175448557,0.7435967698062822,-0.4789146020550826,0,-0.02047565913092478,787.3260073260074,786.5201465201466,834.4688644688645,797.8021978021978,711.1721611721612,0.029602,0.024231,1.004578,0.418701,-2.908478,-0.732727,415018.315018,101761684.981685,65054725.274725,131.265701,1,2,1,2,2,75.000000
2025-05-02 21:38:45.029,1.799812863971003,0.5145473378091479,0,0.6090263858311413,1.806704987784049,0.1740362998204842,0,0.5252508733532597,1.267184164380464,0.4577135414854497,0,0.3653169799611155,1.227868959462102,-0.06204808984807226,0,0.1744167977533139,0.7435967698062822,-0.3853408162736121,0,-0.0009549850006393033,775.6410256410256,794.981684981685,894.1025641025641,790.952380952381,588.2783882783883,0.027161,0.027832,1.006775,0.874786,-1.786957,0.665436,412600.732601,101517509.157509,65279560.439560,142.083420,1,2,1,2,2,75.000000
2025-05-02 21:38:45.424,,,,,,,,,,,,,,,,,,,,,,,,,,,,,,,,,,,,,,,,,,/muse/elements/blink
2025-05-02 21:38:46.033,1.799812863971003,0.7512091300015452,0,0.7202538920358484,1.806704987784049,0.5905556133146614,0,0.5977585528624022,1.267184164380464,0.4900097939780544,0,0.3869274059188701,1.227868959462102,0.04352600039487985,0,0.1528166677134915,0.7435967698062822,-0.5615836396308483,0,-0.07213890896435138,784.1025641025641,794.1758241758242,987.985347985348,775.2380952380953,674.5054945054945,0.020996,0.022888,1.007629,0.328979,-0.620575,-0.515900,410183.150183,101654505.494505,65261831.501832,141.992050,1,1,1,2,1,75.000000
2025-05-02 21:38:46.955,,,,,,,,,,,,,,,,,,,,,,,,,,,,,,,,,,,,,,,,,,/muse/elements/blink
2025-05-02 21:38:47.029,1.799812863971003,0.7760712985142095,0,0.8078878812092557,1.806704987784049,0.6499632224062233,0,0.697781411339947,1.267184164380464,0.5087155822503008,0,0.3315853796688217,1.227868959462102,-0.09104739091851564,0,0.1296890518099674,0.7435967698062822,-0.594312901060927,0,-0.1563911058406461,662.4175824175825,796.996336996337,834.8717948717949,809.0842490842491,803.040293040293,0.017334,0.015686,1.003052,0.672913,-1.495361,1.405640,415018.315018,101959926.739927,65378681.318681,137.866379,1,1,1,2,1,75.000000
2025-05-02 21:38:47.252,,,,,,,,,,,,,,,,,,,,,,,,,,,,,,,,,,,,,,,,,,/muse/elements/blink
2025-05-02 21:38:48.029,1.799812863971003,0.4905183333811963,0,0.8078878812092557,1.806704987784049,0.4985804412270349,0,0.697781411339947,1.267184164380464,0.551241468847795,0,0.3315853796688217,1.227868959462102,-0.1089106832388797,0,0.1296890518099674,0.7435967698062822,-0.457463070564382,0,-0.1563911058406461,728.901098901099,797.8021978021978,972.6739926739928,717.6190476190476,643.0769230769231,0.017517,0.025513,1.006714,1.061707,-0.829926,0.665436,414212.454212,102162197.802198,65805787.545788,135.714127,1,2,1,2,2,75.000000
2025-05-02 21:38:48.194,,,,,,,,,,,,,,,,,,,,,,,,,,,,,,,,,,,,,,,,,,/muse/elements/blink
2025-05-02 21:38:48.473,,,,,,,,,,,,,,,,,,,,,,,,,,,,,,,,,,,,,,,,,,/muse/elements/blink
2025-05-02 21:38:49.034,1.799812863971003,0.7171528825470378,0,0.8078878812092557,1.806704987784049,0.4401316039592783,0,0.697781411339947,1.267184164380464,0.5644953960711565,0,0.3315853796688217,1.227868959462102,-0.04949943157792829,0,0.1296890518099674,0.7435967698062822,-0.4063372678662711,0,-0.1563911058406461,758.3150183150184,799.0109890109891,839.3040293040293,800.6227106227107,934.3956043956044,0.006531,0.027161,0.999390,0.800018,-1.091614,0.829926,411794.871795,101835018.315018,65528571.428571,130.393143,1,2,1,2,2,75.000000
2025-05-02 21:38:50.028,1.799812863971003,0.5380984765618465,0,0.8078878812092557,1.806704987784049,0.1606803172957801,0,0.697781411339947,1.267184164380464,0.07598388031326525,0,0.3315853796688217,1.227868959462102,-0.1336526042304321,0,0.1296890518099674,0.7435967698062822,-0.6558164130735332,0,-0.1563911058406461,715.6043956043957,797.3992673992674,742.6007326007326,754.6886446886447,900.1465201465202,0.008362,0.025024,1.007874,0.560760,-1.308441,0.605621,415824.175824,101726227.106227,65517289.377289,124.054878,1,2,1,2,2,75.000000
2025-05-02 21:38:50.195,,,,,,,,,,,,,,,,,,,,,,,,,,,,,,,,,,,,,,,,,,/muse/elements/blink
2025-05-02 21:38:50.792,,,,,,,,,,,,,,,,,,,,,,,,,,,,,,,,,,,,,,,,,,/muse/elements/blink
2025-05-02 21:38:51.028,1.799812863971003,0.1454748386029498,0,0.8078878812092557,1.806704987784049,0.2991776195004812,0,0.697781411339947,1.267184164380464,0.3676130551192054,0,0.3315853796688217,1.227868959462102,-0.07552364369868815,0,0.1296890518099674,0.7435967698062822,-0.4622144472047174,0,-0.1563911058406461,841.3186813186813,807.4725274725275,963.0036630036631,842.5274725274726,653.956043956044,-0.002502,0.023438,1.000366,0.628052,-1.457977,0.949554,415824.175824,102803663.003663,66885641.025641,120.730766,1,2,1,2,2,75.000000
2025-05-02 21:38:51.919,,,,,,,,,,,,,,,,,,,,,,,,,,,,,,,,,,,,,,,,,,/muse/elements/blink
2025-05-02 21:38:52.034,1.799812863971003,0.883648713452727,0,0.8078878812092557,1.806704987784049,0.3755932001129631,0,0.697781411339947,1.267184164380464,0.4537955151455696,0,0.3315853796688217,1.227868959462102,0.007313514309086364,0,0.1296890518099674,0.7435967698062822,-0.263153281779887,0,-0.1563911058406461,703.1135531135532,793.3699633699634,927.1428571428572,815.934065934066,647.9120879120879,-0.000122,0.020447,1.005371,0.164490,-0.575714,-0.822449,414212.454212,103089743.589744,66867912.087912,120.221420,1,2,1,2,2,75.000000
2025-05-02 21:38:53.038,1.799812863971003,0.3529038612938197,0,0.8078878812092557,1.806704987784049,0.1165737393179492,0,0.697781411339947,1.267184164380464,0.2581156473370825,0,0.3315853796688217,1.227868959462102,0.05618846760206091,0,0.1296890518099674,0.7435967698062822,-0.4201440455491453,0,-0.1563911058406461,630.5860805860806,816.7399267399268,936.4102564102565,674.1025641025641,674.9084249084249,-0.010376,0.019165,1.006287,0.717773,-1.203766,0.508423,418241.758242,103311355.311355,67178974.358974,119.277939,1,2,1,2,2,75.000000
2025-05-02 21:38:53.155,,,,,,,,,,,,,,,,,,,,,,,,,,,,,,,,,,,,,,,,,,/muse/elements/blink
2025-05-02 21:38:54.029,1.799812863971003,0.3183921591784779,0,0.8078878812092557,1.806704987784049,0.2706081098510287,0,0.697781411339947,1.267184164380464,0.3668476946282297,0,0.3315853796688217,1.227868959462102,-0.04147261199727961,0,0.1296890518099674,0.7435967698062822,-0.2907344975392262,0,-0.1563911058406461,668.4615384615385,794.5787545787546,917.4725274725275,796.996336996337,647.5091575091575,-0.006226,0.021545,1.003235,0.575714,-1.278534,0.411224,417435.897436,103174358.974359,66811501.831502,129.579269,1,2,1,2,2,75.000000
2025-05-02 21:38:54.787,,,,,,,,,,,,,,,,,,,,,,,,,,,,,,,,,,,,,,,,,,/muse/elements/blink
2025-05-02 21:38:55.030,1.799812863971003,0.5571872393902542,0,0.8078878812092557,1.806704987784049,0.2921106290507353,0,0.697781411339947,1.267184164380464,0.2928234030574832,0,0.3315853796688217,1.227868959462102,-0.06347096855487692,0,0.1296890518099674,0.7435967698062822,-0.4884971846164206,0,-0.1563911058406461,865.0915750915751,842.9304029304029,817.5457875457876,826.007326007326,812.3076923076924,-0.003723,0.023376,1.010437,0.710297,-2.130890,0.396271,414212.454212,103026080.586081,66915457.875458,130.921783,1,2,1,2,2,75.000000
2025-05-02 21:38:56.029,1.799812863971003,1.055562510611868,0,0.8078878812092557,1.806704987784049,0.1536437420856757,0,0.697781411339947,1.267184164380464,0.149344042482758,0,0.3315853796688217,1.227868959462102,-0.06458839764404875,0,0.1296890518099674,0.7435967698062822,-0.4582991637523169,0,-0.1563911058406461,795.3846153846154,796.996336996337,922.3076923076924,792.1611721611722,685.7875457875458,-0.012817,0.023621,1.007568,0.112152,-1.831818,-0.575714,418241.758242,102922124.542125,66880805.860806,132.274460,1,2,1,2,2,75.000000
2025-05-02 21:38:56.728,,,,,,,,,,,,,,,,,,,,,,,,,,,,,,,,,,,,,,,,,,/muse/elements/blink
2025-05-02 21:38:57.037,1.799812863971003,0.9026580909699071,0,0.8078878812092557,1.806704987784049,0.09214023386984374,0,0.697781411339947,1.267184164380464,0.3889448292653037,0,0.3315853796688217,1.227868959462102,-0.07815590329056556,0,0.1296890518099674,0.7435967698062822,-0.5508366150387281,0,-0.1563911058406461,810.2930402930403,794.1758241758242,918.6813186813187,811.0989010989011,693.8461538461538,-0.007629,0.028687,1.006470,0.732727,-3.491669,0.082245,418241.758242,103134871.794872,67523076.923077,128.610321,1,2,1,2,2,75.000000
2025-05-02 21:38:57.748,,,,,,,,,,,,,,,,,,,,,,,,,,,,,,,,,,,,,,,,,,/muse/elements/blink
2025-05-02 21:38:57.919,,,,,,,,,,,,,,,,,,,,,,,,,,,,,,,,,,,,,,,,,,/muse/elements/blink
2025-05-02 21:38:58.034,1.799812863971003,0.653441569857672,0,0.8078878812092557,1.806704987784049,0.4798660881328171,0,0.697781411339947,1.267184164380464,0.4603379217853545,0,0.3315853796688217,1.227868959462102,0.1184377974889685,0,0.1296890518099674,0.7435967698062822,-0.4864061792556988,0,-0.1563911058406461,887.2527472527473,792.5641025641025,888.4615384615385,829.2307692307693,658.7912087912088,-0.003113,0.029053,1.005188,0.725250,-1.929016,1.271057,415824.175824,103167912.087912,67791428.571429,130.641312,1,2,1,2,2,75.000000
2025-05-02 21:38:59.028,1.799812863971003,0.4315524670530695,0,0.8078878812092557,1.806704987784049,0.5832391401804885,0,0.697781411339947,1.267184164380464,0.6087825297732692,0,0.3315853796688217,1.227868959462102,0.1276013504839695,0,0.1296890518099674,0.7435967698062822,-0.3753693075860362,0,-0.1563911058406461,750.2564102564103,801.4285714285714,893.6996336996338,800.2197802197802,673.6996336996338,-0.014404,0.023987,1.009460,0.351410,-1.338348,-0.515900,419047.619048,103254945.054945,67973553.113553,126.658302,1,2,1,2,2,75.000000
2025-05-02 21:39:00.029,1.799812863971003,0.01066317534267698,0,0.3041018806332504,1.806704987784049,-0.2480480145218695,0,0.3489854986735872,1.267184164380464,0.2443977622071288,0,0.554423457362649,1.227868959462102,0.01586490045175433,0,0.3070242039323792,0.7435967698062822,-0.5007972138930181,0,0.07922729515075903,840.9157509157509,796.5934065934066,968.6446886446887,847.7655677655678,712.7838827838829,-0.015930,0.024170,1.006042,0.089722,-0.912170,-0.186920,419853.479853,103583736.263736,68286227.106227,126.658302,1,1,1,2,1,75.000000
2025-05-02 21:39:00.044,,,,,,,,,,,,,,,,,,,,,,,,,,,,,,,,,,,,,,,,,,/muse/elements/blink
2025-05-02 21:39:01.032,1.799812863971003,0.5415940693484951,0,0.2376730393091036,1.806704987784049,0.1518638689836103,0,0.2460514499379484,1.267184164380464,0.2770260284187999,0,0.4739345687783725,1.227868959462102,-0.1013997159448732,0,0.4039620711402237,0.7435967698062822,-0.4826696814070583,0,0.1418777911068117,753.0769230769231,797.8021978021978,900.1465201465202,793.7728937728938,611.2454212454213,-0.018127,0.023743,1.004944,0.635529,-1.375732,0.179443,418241.758242,103606300.366300,68043663.003663,126.658302,1,1,1,2,1,75.000000
2025-05-02 21:39:01.489,,,,,,,,,,,,,,,,,,,,,,,,,,,,,,,,,,,,,,,,,,/muse/elements/blink
