TimeStamp,Delta_TP9,Delta_AF7,Delta_AF8,Delta_TP10,Theta_TP9,Theta_AF7,Theta_AF8,Theta_TP10,Alpha_TP9,Alpha_AF7,Alpha_AF8,Alpha_TP10,Beta_TP9,Beta_AF7,Beta_AF8,Beta_TP10,Gamma_TP9,Gamma_AF7,Gamma_AF8,Gamma_TP10,RAW_TP9,RAW_AF7,RAW_AF8,RAW_TP10,AUX_RIGHT,Accelerometer_X,Accelerometer_Y,Accelerometer_Z,Gyro_X,Gyro_Y,Gyro_Z,PPG_Ambient,PPG_IR,PPG_Red,Heart_Rate,HeadBandOn,HSI_TP9,HSI_AF7,HSI_AF8,HSI_TP10,Battery,Elements
2025-05-02 16:01:18.150,,,,,,,,,,,,,,,,,,,,,,,,,,,,,,,,,,,,,,,,,,/muse/event/connected Muse-1C98
2025-05-02 16:01:19.162,1.249547650834999,1.192540409797096,0.9110014281582367,1.003766606295184,0.6552369624071693,0.3724744631464415,0.3798511528682716,0.3912447476604833,0.7218168342901572,0.2781117479675682,-0.01985162344458522,0.2927929503025251,0.3579710966324131,0.1251436050538198,0.2565769224182548,0.3642928478986412,0.1372491456615013,-0.1786953485319161,-0.09207597290529043,0.4235287045994144,843.7362637362637,781.2820512820513,770.8058608058608,827.6190476190476,699.4871794871796,-0.119873,0.066833,0.996826,1.263580,-2.676697,1.016846,404542.124542,93096263.736264,56863956.043956,84.355553,1,1,1,1,1,60.000000
2025-05-02 16:01:20.151,1.295404690707994,1.126601444177441,1.273641415582198,1.003766606295184,0.7488383134799343,0.5867034860520713,0.7330529633140095,0.3912447476604833,0.8385557970931635,0.6523933907415921,0.5408374189658324,0.2927929503025251,0.3510710400635125,0.1881407095351887,0.2305758729762416,0.3642928478986412,0.1725246410844021,-0.2578730624609785,-0.2401259968532075,0.4235287045994144,835.2747252747253,783.6996336996338,769.5970695970697,833.2600732600733,1035.934065934066,-0.125732,0.067139,1.007751,0.732727,-0.628052,0.904694,404542.124542,93314652.014652,57034798.534799,86.647507,1,1,1,1,1,60.000000
2025-05-02 16:01:21.151,1.157838488951312,0.9016287570461305,0.8759215734185301,1.173617657257828,0.9253632682115038,0.3351376763806736,0.5433208649559527,1.14593745948586,0.8602067934707004,0.6781830938614257,0.1715374625489589,0.8555433434677411,0.4517902412160011,0.2586291002588669,0.09029997948950871,0.3654887432216777,0.1248216554250465,-0.4088104582904953,-0.06105640332609316,0.02771241115238144,825.2014652014652,770.4029304029305,810.6959706959707,803.4432234432235,925.1282051282052,-0.110046,0.061768,1.001160,-0.119629,-0.553284,-1.263580,405347.985348,93147838.827839,57051721.611722,84.805168,1,1,1,1,1,60.000000
2025-05-02 16:01:21.354,,,,,,,,,,,,,,,,,,,,,,,,,,,,,,,,,,,,,,,,,,/muse/elements/blink
2025-05-02 16:01:22.161,1.157838488951312,1.253555354116248,0.8759215734185301,1.173617657257828,0.9253632682115038,0.3940937248084558,0.5433208649559527,1.14593745948586,0.8602067934707004,0.2918912055138471,0.1715374625489589,0.8555433434677411,0.4517902412160011,0.1968325054742299,0.09029997948950871,0.3654887432216777,0.1248216554250465,-0.3767354896829658,-0.06105640332609316,0.02771241115238144,830.4395604395604,818.3516483516484,754.6886446886447,819.5604395604396,558.4615384615385,-0.108215,0.064819,0.997803,0.261688,-2.714081,1.001892,408571.428571,93264688.644689,57046080.586081,82.532745,1,1,1,1,1,60.000000
2025-05-02 16:01:23.151,0.5587982217385947,1.344306036217104,0.6707600683655474,0.7461864588326325,0.6669567067142173,0.3936976526842594,0.7017272156744516,0.8296318941084977,0.8925267803129263,0.2234171827178839,0.6674956969966805,0.8400471330794743,0.4073174877331264,0.1787977204024963,0.2587507689148748,0.5235668672014846,-0.05010445747970674,-0.3411761087108252,-0.2697173043664254,0.01145211101135937,859.4505494505495,834.0659340659341,830.8424908424909,851.7948717948718,942.0512820512821,-0.101379,0.070496,0.995605,1.143951,-1.046753,0.067291,406959.706960,93477435.897436,57021904.761905,80.444092,1,1,1,1,1,60.000000
2025-05-02 16:01:24.153,0.8678082222713031,1.055096134722615,0.3853162690428338,1.027002188941663,0.8882261452170511,0.5589414155709325,0.5529229047530881,0.9375014579883556,1.004367911878676,0.6297096786116506,0.5840268115257673,0.90819381071604,0.3723538951813057,0.1697435283235769,0.2347746250326445,0.4354545226324698,-0.04214085891021867,-0.440759128796378,-0.2906348480563212,-0.1009858977830727,853.4065934065934,821.978021978022,725.2747252747253,851.7948717948718,818.3516483516484,-0.114990,0.079712,1.001343,-0.336456,2.833710,3.985138,407765.567766,93515311.355311,57030769.230769,76.109322,1,1,1,1,1,60.000000
2025-05-02 16:01:25.093,,,,,,,,,,,,,,,,,,,,,,,,,,,,,,,,,,,,,,,,,,/muse/elements/blink
2025-05-02 16:01:25.151,1.075836652906557,1.085404709405798,0.4167861919358226,1.096255713680184,1.010374356415507,0.4295230681745799,0.5484593554422484,0.8787468028441515,0.9425414902899945,0.6068022185791708,0.5533088876157846,0.6778748692523305,0.3308432865710468,0.2198631624108894,0.2148940282772382,0.2851967360256215,-0.02055849133902353,-0.5110875235953354,-0.2950542834058306,-0.2212802646901629,713.1868131868132,670.0732600732601,532.2710622710623,694.6520146520147,577.3992673992674,-0.136536,0.080444,0.993347,0.934601,-1.936493,-1.061707,406959.706960,93603150.183150,57026739.926740,72.203880,1,1,1,1,1,60.000000
2025-05-02 16:01:26.156,1.075836652906557,1.085404709405798,0.4167861919358226,1.096255713680184,1.010374356415507,0.4295230681745799,0.5484593554422484,0.8787468028441515,0.9425414902899945,0.6068022185791708,0.5533088876157846,0.6778748692523305,0.3308432865710468,0.2198631624108894,0.2148940282772382,0.2851967360256215,-0.02055849133902353,-0.5110875235953354,-0.2950542834058306,-0.2212802646901629,756.7032967032967,708.7545787545788,725.2747252747253,780.0732600732601,794.5787545787546,-0.134766,0.079712,0.976379,1.353302,-1.772003,-1.570129,406959.706960,93528205.128205,56959853.479853,70.048508,1,1,1,1,1,60.000000
2025-05-02 16:01:27.012,,,,,,,,,,,,,,,,,,,,,,,,,,,,,,,,,,,,,,,,,,/muse/elements/blink
2025-05-02 16:01:27.163,1.075836652906557,1.085404709405798,0.4167861919358226,1.096255713680184,1.010374356415507,0.4295230681745799,0.5484593554422484,0.8787468028441515,0.9425414902899945,0.6068022185791708,0.5533088876157846,0.6778748692523305,0.3308432865710468,0.2198631624108894,0.2148940282772382,0.2851967360256215,-0.02055849133902353,-0.5110875235953354,-0.2950542834058306,-0.2212802646901629,1470.695970695971,1351.428571428572,1550.476190476191,1440.07326007326,686.996336996337,-0.127441,0.079468,0.977051,-0.209351,0.224304,-0.239258,406959.706960,93064029.304029,56805934.065934,69.848801,1,2,1,1,2,60.000000
2025-05-02 16:01:27.346,,,,,,,,,,,,,,,,,,,,,,,,,,,,,,,,,,,,,,,,,,/muse/elements/blink
2025-05-02 16:01:27.958,,,,,,,,,,,,,,,,,,,,,,,,,,,,,,,,,,,,,,,,,,/muse/elements/blink
2025-05-02 16:01:28.151,1.075836652906557,1.085404709405798,0.4167861919358226,1.096255713680184,1.010374356415507,0.4295230681745799,0.5484593554422484,0.8787468028441515,0.9425414902899945,0.6068022185791708,0.5533088876157846,0.6778748692523305,0.3308432865710468,0.2198631624108894,0.2148940282772382,0.2851967360256215,-0.02055849133902353,-0.5110875235953354,-0.2950542834058306,-0.2212802646901629,0,51.57509157509158,0,0,625.7509157509157,-0.101929,0.076660,1.000427,1.278534,-1.256104,0.508423,406959.706960,92775531.135531,56657655.677656,70.460297,1,2,1,1,2,60.000000
2025-05-02 16:01:28.242,,,,,,,,,,,,,,,,,,,,,,,,,,,,,,,,,,,,,,,,,,/muse/elements/blink
2025-05-02 16:01:28.854,,,,,,,,,,,,,,,,,,,,,,,,,,,,,,,,,,,,,,,,,,/muse/elements/blink
2025-05-02 16:01:29.151,1.075836652906557,1.085404709405798,0.4167861919358226,1.096255713680184,1.010374356415507,0.4295230681745799,0.5484593554422484,0.8787468028441515,0.9425414902899945,0.6068022185791708,0.5533088876157846,0.6778748692523305,0.3308432865710468,0.2198631624108894,0.2148940282772382,0.2851967360256215,-0.02055849133902353,-0.5110875235953354,-0.2950542834058306,-0.2212802646901629,1043.992673992674,859.4505494505495,886.0439560439561,988.7912087912089,909.0109890109891,-0.112488,0.080811,0.994446,0.897217,-1.405640,0.725250,407765.567766,92641758.241758,56631868.131868,71.361664,1,2,2,2,2,60.000000
2025-05-02 16:01:29.462,,,,,,,,,,,,,,,,,,,,,,,,,,,,,,,,,,,,,,,,,,/muse/elements/blink
2025-05-02 16:01:29.878,,,,,,,,,,,,,,,,,,,,,,,,,,,,,,,,,,,,,,,,,,/muse/elements/blink
2025-05-02 16:01:30.152,1.075836652906557,1.085404709405798,0.4167861919358226,1.096255713680184,1.010374356415507,0.4295230681745799,0.5484593554422484,0.8787468028441515,0.9425414902899945,0.6068022185791708,0.5533088876157846,0.6778748692523305,0.3308432865710468,0.2198631624108894,0.2148940282772382,0.2851967360256215,-0.02055849133902353,-0.5110875235953354,-0.2950542834058306,-0.2212802646901629,50.36630036630036,133.3699633699634,22.96703296703297,103.1501831501832,728.901098901099,-0.142578,0.089478,1.003357,-3.117828,-1.652374,-3.244934,412600.732601,92634505.494505,56718095.238095,71.430573,1,4,4,4,4,60.000000
2025-05-02 16:01:30.488,,,,,,,,,,,,,,,,,,,,,,,,,,,,,,,,,,,,,,,,,,/muse/elements/blink
2025-05-02 16:01:31.163,1.075836652906557,1.085404709405798,0.4167861919358226,1.096255713680184,1.010374356415507,0.4295230681745799,0.5484593554422484,0.8787468028441515,0.9425414902899945,0.6068022185791708,0.5533088876157846,0.6778748692523305,0.3308432865710468,0.2198631624108894,0.2148940282772382,0.2851967360256215,-0.02055849133902353,-0.5110875235953354,-0.2950542834058306,-0.2212802646901629,616.8864468864469,623.3333333333334,725.6776556776557,599.1575091575091,556.4468864468864,-0.157654,0.079285,0.983337,-0.343933,-2.355194,-2.123413,407765.567766,92632893.772894,56761611.721612,71.645073,1,2,1,2,2,60.000000
2025-05-02 16:01:32.150,1.075836652906557,1.085404709405798,0.4167861919358226,1.096255713680184,1.010374356415507,0.4295230681745799,0.5484593554422484,0.8787468028441515,0.9425414902899945,0.6068022185791708,0.5533088876157846,0.6778748692523305,0.3308432865710468,0.2198631624108894,0.2148940282772382,0.2851967360256215,-0.02055849133902353,-0.5110875235953354,-0.2950542834058306,-0.2212802646901629,893.6996336996338,746.2271062271062,730.5128205128206,883.6263736263736,648.3150183150183,-0.138611,0.084229,0.987793,-0.560760,-1.996307,-0.844879,410183.150183,92282344.322344,56689890.109890,72.534706,1,2,2,2,2,60.000000
2025-05-02 16:01:33.019,,,,,,,,,,,,,,,,,,,,,,,,,,,,,,,,,,,,,,,,,,/muse/elements/blink
2025-05-02 16:01:33.164,1.075836652906557,1.085404709405798,0.4167861919358226,1.096255713680184,1.010374356415507,0.4295230681745799,0.5484593554422484,0.8787468028441515,0.9425414902899945,0.6068022185791708,0.5533088876157846,0.6778748692523305,0.3308432865710468,0.2198631624108894,0.2148940282772382,0.2851967360256215,-0.02055849133902353,-0.5110875235953354,-0.2950542834058306,-0.2212802646901629,1008.937728937729,832.4542124542124,610.4395604395604,990,704.3223443223443,-0.128235,0.095398,0.991577,0.620575,-1.943970,-0.515900,413406.593407,92292820.512821,56743882.783883,74.481781,1,2,1,1,2,60.000000
2025-05-02 16:01:34.045,,,,,,,,,,,,,,,,,,,,,,,,,,,,,,,,,,,,,,,,,,/muse/elements/blink
2025-05-02 16:01:34.151,1.075836652906557,1.085404709405798,0.4167861919358226,1.096255713680184,1.010374356415507,0.4295230681745799,0.5484593554422484,0.8787468028441515,0.9425414902899945,0.6068022185791708,0.5533088876157846,0.6778748692523305,0.3308432865710468,0.2198631624108894,0.2148940282772382,0.2851967360256215,-0.02055849133902353,-0.5110875235953354,-0.2950542834058306,-0.2212802646901629,300.5860805860806,316.3003663003663,55.2014652014652,294.5421245421246,591.9047619047619,-0.131348,0.082581,0.993103,0.037384,-1.330872,-0.134583,412600.732601,91893919.413919,56766446.886447,77.204086,1,2,1,1,2,60.000000
2025-05-02 16:01:35.151,1.075836652906557,1.085404709405798,0.4167861919358226,1.096255713680184,1.010374356415507,0.4295230681745799,0.5484593554422484,0.8787468028441515,0.9425414902899945,0.6068022185791708,0.5533088876157846,0.6778748692523305,0.3308432865710468,0.2198631624108894,0.2148940282772382,0.2851967360256215,-0.02055849133902353,-0.5110875235953354,-0.2950542834058306,-0.2212802646901629,1017.802197802198,928.3516483516484,870.3296703296703,1003.296703296703,701.9047619047619,-0.123230,0.084778,0.995300,0.672913,-1.973877,-1.106567,414212.454212,91860073.260073,56856703.296703,79.940933,1,2,1,1,2,60.000000
2025-05-02 16:01:36.151,1.075836652906557,1.085404709405798,0.4167861919358226,1.096255713680184,1.010374356415507,0.4295230681745799,0.5484593554422484,0.8787468028441515,0.9425414902899945,0.6068022185791708,0.5533088876157846,0.6778748692523305,0.3308432865710468,0.2198631624108894,0.2148940282772382,0.2851967360256215,-0.02055849133902353,-0.5110875235953354,-0.2950542834058306,-0.2212802646901629,1091.941391941392,990.4029304029305,749.4505494505495,1060.10989010989,591.5018315018315,-0.150024,0.079407,0.977600,-0.029907,-0.074768,-0.433655,414212.454212,92133260.073260,57113772.893773,82.077682,1,2,1,1,2,60.000000
2025-05-02 16:01:36.677,,,,,,,,,,,,,,,,,,,,,,,,,,,,,,,,,,,,,,,,,,/muse/elements/blink
2025-05-02 16:01:37.151,1.075836652906557,1.085404709405798,0.4167861919358226,1.096255713680184,1.010374356415507,0.4295230681745799,0.5484593554422484,0.8787468028441515,0.9425414902899945,0.6068022185791708,0.5533088876157846,0.6778748692523305,0.3308432865710468,0.2198631624108894,0.2148940282772382,0.2851967360256215,-0.02055849133902353,-0.5110875235953354,-0.2950542834058306,-0.2212802646901629,533.8827838827839,474.2490842490843,672.4908424908425,534.2857142857143,601.1721611721612,-0.145752,0.095154,0.990112,-0.485992,-0.680389,-1.338348,415018.315018,92165494.505495,57106520.146520,81.905228,1,2,1,1,2,60.000000
2025-05-02 16:01:37.701,,,,,,,,,,,,,,,,,,,,,,,,,,,,,,,,,,,,,,,,,,/muse/elements/blink
2025-05-02 16:01:38.154,1.075836652906557,1.085404709405798,0.4167861919358226,1.096255713680184,1.010374356415507,0.4295230681745799,0.5484593554422484,0.8787468028441515,0.9425414902899945,0.6068022185791708,0.5533088876157846,0.6778748692523305,0.3308432865710468,0.2198631624108894,0.2148940282772382,0.2851967360256215,-0.02055849133902353,-0.5110875235953354,-0.2950542834058306,-0.2212802646901629,875.5677655677656,822.3809523809524,731.3186813186813,868.7179487179487,788.1318681318681,-0.140625,0.058228,0.978027,1.502838,0.194397,0.986938,415018.315018,92259780.219780,57096043.956044,80.412018,1,2,1,1,2,60.000000
2025-05-02 16:01:38.225,,,,,,,,,,,,,,,,,,,,,,,,,,,,,,,,,,,,,,,,,,/muse/elements/blink
2025-05-02 16:01:39.160,1.075836652906557,1.085404709405798,0.4167861919358226,1.096255713680184,1.010374356415507,0.4295230681745799,0.5484593554422484,0.8787468028441515,0.9425414902899945,0.6068022185791708,0.5533088876157846,0.6778748692523305,0.3308432865710468,0.2198631624108894,0.2148940282772382,0.2851967360256215,-0.02055849133902353,-0.5110875235953354,-0.2950542834058306,-0.2212802646901629,1002.893772893773,1044.395604395604,820.3663003663004,993.2234432234433,672.0879120879121,-0.159607,0.095337,0.986328,2.078552,-1.831818,1.211243,415018.315018,92204175.824176,56964688.644689,80.271500,1,2,1,1,2,60.000000
2025-05-02 16:01:39.209,,,,,,,,,,,,,,,,,,,,,,,,,,,,,,,,,,,,,,,,,,/muse/elements/blink
2025-05-02 16:01:40.152,1.075836652906557,1.085404709405798,0.4167861919358226,1.096255713680184,1.010374356415507,0.4295230681745799,0.5484593554422484,0.8787468028441515,0.9425414902899945,0.6068022185791708,0.5533088876157846,0.6778748692523305,0.3308432865710468,0.2198631624108894,0.2148940282772382,0.2851967360256215,-0.02055849133902353,-0.5110875235953354,-0.2950542834058306,-0.2212802646901629,1273.260073260073,965.4212454212454,1243.040293040293,1254.322344322344,554.4322344322344,-0.142334,0.087219,0.992004,0.837402,-2.003784,-0.246735,415018.315018,92155018.315018,56830109.890110,81.506256,1,2,1,1,2,60.000000
2025-05-02 16:01:41.151,1.075836652906557,1.085404709405798,0.4167861919358226,1.096255713680184,1.010374356415507,0.4295230681745799,0.5484593554422484,0.8787468028441515,0.9425414902899945,0.6068022185791708,0.5533088876157846,0.6778748692523305,0.3308432865710468,0.2198631624108894,0.2148940282772382,0.2851967360256215,-0.02055849133902353,-0.5110875235953354,-0.2950542834058306,-0.2212802646901629,1095.164835164835,970.2564102564103,877.985347985348,1077.838827838828,734.1391941391942,-0.135315,0.076904,0.990662,0.201874,-1.644897,-1.024323,415824.175824,92213846.153846,56846227.106227,85.302055,1,2,1,1,2,60.000000
2025-05-02 16:01:41.438,,,,,,,,,,,,,,,,,,,,,,,,,,,,,,,,,,,,,,,,,,/muse/elements/blink
2025-05-02 16:01:42.151,1.075836652906557,1.085404709405798,0.4167861919358226,1.096255713680184,1.010374356415507,0.4295230681745799,0.5484593554422484,0.8787468028441515,0.9425414902899945,0.6068022185791708,0.5533088876157846,0.6778748692523305,0.3308432865710468,0.2198631624108894,0.2148940282772382,0.2851967360256215,-0.02055849133902353,-0.5110875235953354,-0.2950542834058306,-0.2212802646901629,838.0952380952381,694.6520146520147,1003.699633699634,802.6373626373627,684.5787545787546,-0.119873,0.075928,1.001831,0.740204,-1.428070,0.328979,414212.454212,92433846.153846,56900219.780220,82.914986,1,2,1,1,2,60.000000
2025-05-02 16:01:42.761,,,,,,,,,,,,,,,,,,,,,,,,,,,,,,,,,,,,,,,,,,/muse/elements/blink
2025-05-02 16:01:43.151,1.075836652906557,1.085404709405798,0.4167861919358226,1.096255713680184,1.010374356415507,0.4295230681745799,0.5484593554422484,0.8787468028441515,0.9425414902899945,0.6068022185791708,0.5533088876157846,0.6778748692523305,0.3308432865710468,0.2198631624108894,0.2148940282772382,0.2851967360256215,-0.02055849133902353,-0.5110875235953354,-0.2950542834058306,-0.2212802646901629,648.3150183150183,689.8168498168499,589.4871794871796,613.6630036630037,770.8058608058608,-0.122498,0.075806,0.998779,0.328979,-0.762634,0.022430,412600.732601,92570036.630037,56926007.326007,78.116737,1,2,1,1,2,60.000000
2025-05-02 16:01:43.283,,,,,,,,,,,,,,,,,,,,,,,,,,,,,,,,,,,,,,,,,,/muse/elements/blink
2025-05-02 16:01:44.151,1.075836652906557,1.085404709405798,0.4167861919358226,1.096255713680184,1.010374356415507,0.4295230681745799,0.5484593554422484,0.8787468028441515,0.9425414902899945,0.6068022185791708,0.5533088876157846,0.6778748692523305,0.3308432865710468,0.2198631624108894,0.2148940282772382,0.2851967360256215,-0.02055849133902353,-0.5110875235953354,-0.2950542834058306,-0.2212802646901629,832.8571428571429,800.6227106227107,701.0989010989011,883.2234432234433,669.6703296703297,-0.096069,0.090027,0.994019,0.306549,-2.257996,0.874786,410989.010989,92702197.802198,56901831.501832,74.466286,1,2,1,1,2,60.000000
2025-05-02 16:01:44.920,,,,,,,,,,,,,,,,,,,,,,,,,,,,,,,,,,,,,,,,,,/muse/elements/blink
2025-05-02 16:01:45.151,1.075836652906557,1.085404709405798,0.4167861919358226,1.096255713680184,1.010374356415507,0.4295230681745799,0.5484593554422484,0.8787468028441515,0.9425414902899945,0.6068022185791708,0.5533088876157846,0.6778748692523305,0.3308432865710468,0.2198631624108894,0.2148940282772382,0.2851967360256215,-0.02055849133902353,-0.5110875235953354,-0.2950542834058306,-0.2212802646901629,1034.725274725275,909.8168498168499,502.051282051282,1029.487179487179,606.4102564102565,-0.100098,0.069763,1.001526,-0.403748,-1.801910,-2.108459,415018.315018,92595824.175824,56812380.952381,71.792747,1,2,1,1,2,60.000000
2025-05-02 16:01:45.203,,,,,,,,,,,,,,,,,,,,,,,,,,,,,,,,,,,,,,,,,,/muse/elements/blink
2025-05-02 16:01:45.986,,,,,,,,,,,,,,,,,,,,,,,,,,,,,,,,,,,,,,,,,,/muse/elements/blink
2025-05-02 16:01:46.150,1.075836652906557,1.085404709405798,0.4167861919358226,1.096255713680184,1.010374356415507,0.4295230681745799,0.5484593554422484,0.8787468028441515,0.9425414902899945,0.6068022185791708,0.5533088876157846,0.6778748692523305,0.3308432865710468,0.2198631624108894,0.2148940282772382,0.2851967360256215,-0.02055849133902353,-0.5110875235953354,-0.2950542834058306,-0.2212802646901629,280.8424908424909,506.0805860805861,495.6043956043956,272.3809523809524,497.6190476190476,-0.098450,0.089600,0.997559,1.375732,-2.003784,-0.089722,415824.175824,92734432.234432,56686666.666667,70.059204,1,2,1,1,2,60.000000
2025-05-02 16:01:46.334,,,,,,,,,,,,,,,,,,,,,,,,,,,,,,,,,,,,,,,,,,/muse/elements/blink
2025-05-02 16:01:46.749,,,,,,,,,,,,,,,,,,,,,,,,,,,,,,,,,,,,,,,,,,/muse/elements/blink
2025-05-02 16:01:47.151,1.075836652906557,1.085404709405798,0.4167861919358226,1.096255713680184,1.010374356415507,0.4295230681745799,0.5484593554422484,0.8787468028441515,0.9425414902899945,0.6068022185791708,0.5533088876157846,0.6778748692523305,0.3308432865710468,0.2198631624108894,0.2148940282772382,0.2851967360256215,-0.02055849133902353,-0.5110875235953354,-0.2950542834058306,-0.2212802646901629,168.021978021978,904.5787545787546,660,165.2014652014652,756.7032967032967,-0.092407,0.083801,0.999390,0.508423,-1.345825,-0.844879,415824.175824,92891575.091575,56712454.212454,69.484131,1,4,4,4,4,60.000000
2025-05-02 16:01:47.553,,,,,,,,,,,,,,,,,,,,,,,,,,,,,,,,,,,,,,,,,,/muse/elements/blink
2025-05-02 16:01:48.153,1.075836652906557,1.085404709405798,0.4167861919358226,1.096255713680184,1.010374356415507,0.4295230681745799,0.5484593554422484,0.8787468028441515,0.9425414902899945,0.6068022185791708,0.5533088876157846,0.6778748692523305,0.3308432865710468,0.2198631624108894,0.2148940282772382,0.2851967360256215,-0.02055849133902353,-0.5110875235953354,-0.2950542834058306,-0.2212802646901629,296.959706959707,124.1025641025641,287.2893772893773,303.8095238095238,647.1062271062272,-0.098938,0.068054,0.988831,-0.523376,-0.867310,-1.854248,417435.897436,92895604.395604,56633479.853480,71.119621,1,4,4,4,4,60.000000
2025-05-02 16:01:48.858,,,,,,,,,,,,,,,,,,,,,,,,,,,,,,,,,,,,,,,,,,/muse/elements/blink
2025-05-02 16:01:49.152,1.075836652906557,1.085404709405798,0.4167861919358226,1.096255713680184,1.010374356415507,0.4295230681745799,0.5484593554422484,0.8787468028441515,0.9425414902899945,0.6068022185791708,0.5533088876157846,0.6778748692523305,0.3308432865710468,0.2198631624108894,0.2148940282772382,0.2851967360256215,-0.02055849133902353,-0.5110875235953354,-0.2950542834058306,-0.2212802646901629,782.893772893773,1596.813186813187,455.7142857142857,786.1172161172161,565.7142857142858,-0.094116,0.076111,0.998169,0.485992,-1.772003,0.276642,418241.758242,92665128.205128,56527912.087912,74.442039,1,4,4,4,4,60.000000
2025-05-02 16:01:49.989,,,,,,,,,,,,,,,,,,,,,,,,,,,,,,,,,,,,,,,,,,/muse/elements/blink
2025-05-02 16:01:50.155,1.075836652906557,1.085404709405798,0.4167861919358226,1.096255713680184,1.010374356415507,0.4295230681745799,0.5484593554422484,0.8787468028441515,0.9425414902899945,0.6068022185791708,0.5533088876157846,0.6778748692523305,0.3308432865710468,0.2198631624108894,0.2148940282772382,0.2851967360256215,-0.02055849133902353,-0.5110875235953354,-0.2950542834058306,-0.2212802646901629,936.007326007326,312.6739926739927,696.6666666666667,946.8864468864469,714.7985347985348,-0.100342,0.075562,0.998352,1.203766,-2.243042,0.463562,417435.897436,92417728.937729,56471501.831502,78.156235,1,4,4,4,4,60.000000
2025-05-02 16:01:50.404,,,,,,,,,,,,,,,,,,,,,,,,,,,,,,,,,,,,,,,,,,/muse/elements/blink
2025-05-02 16:01:50.883,,,,,,,,,,,,,,,,,,,,,,,,,,,,,,,,,,,,,,,,,,/muse/elements/blink
2025-05-02 16:01:51.158,1.075836652906557,1.085404709405798,0.4167861919358226,1.096255713680184,1.010374356415507,0.4295230681745799,0.5484593554422484,0.8787468028441515,0.9425414902899945,0.6068022185791708,0.5533088876157846,0.6778748692523305,0.3308432865710468,0.2198631624108894,0.2148940282772382,0.2851967360256215,-0.02055849133902353,-0.5110875235953354,-0.2950542834058306,-0.2212802646901629,1016.593406593407,727.6923076923077,879.1941391941392,998.0586080586081,552.8205128205128,-0.107544,0.070007,0.992920,0.635529,-1.181335,1.443024,415824.175824,91793992.673993,56298241.758242,81.162498,1,2,2,4,2,60.000000
2025-05-02 16:01:52.162,1.075836652906557,1.085404709405798,0.4167861919358226,1.096255713680184,1.010374356415507,0.4295230681745799,0.5484593554422484,0.8787468028441515,0.9425414902899945,0.6068022185791708,0.5533088876157846,0.6778748692523305,0.3308432865710468,0.2198631624108894,0.2148940282772382,0.2851967360256215,-0.02055849133902353,-0.5110875235953354,-0.2950542834058306,-0.2212802646901629,1081.062271062271,740.1831501831502,894.1025641025641,1076.227106227106,670.0732600732601,-0.097229,0.069397,0.999878,0.396271,-1.764526,-1.256104,417435.897436,91591721.611722,56405421.245421,82.415611,1,2,1,1,2,60.000000
2025-05-02 16:01:52.711,,,,,,,,,,,,,,,,,,,,,,,,,,,,,,,,,,,,,,,,,,/muse/elements/blink
2025-05-02 16:01:53.150,1.075836652906557,1.085404709405798,0.4167861919358226,1.096255713680184,1.010374356415507,0.4295230681745799,0.5484593554422484,0.8787468028441515,0.9425414902899945,0.6068022185791708,0.5533088876157846,0.6778748692523305,0.3308432865710468,0.2198631624108894,0.2148940282772382,0.2851967360256215,-0.02055849133902353,-0.5110875235953354,-0.2950542834058306,-0.2212802646901629,455.3113553113553,666.4468864468864,570.1465201465202,451.6849816849817,662.014652014652,-0.092346,0.069702,0.999451,0.538330,-2.228088,0.942078,417435.897436,91426520.146520,56532747.252747,83.257942,1,2,2,2,2,60.000000
2025-05-02 16:01:53.233,,,,,,,,,,,,,,,,,,,,,,,,,,,,,,,,,,,,,,,,,,/muse/elements/blink
2025-05-02 16:01:53.452,,,,,,,,,,,,,,,,,,,,,,,,,,,,,,,,,,,,,,,,,,/muse/elements/blink
2025-05-02 16:01:54.162,1.075836652906557,1.085404709405798,0.4167861919358226,1.096255713680184,1.010374356415507,0.4295230681745799,0.5484593554422484,0.8787468028441515,0.9425414902899945,0.6068022185791708,0.5533088876157846,0.6778748692523305,0.3308432865710468,0.2198631624108894,0.2148940282772382,0.2851967360256215,-0.02055849133902353,-0.5110875235953354,-0.2950542834058306,-0.2212802646901629,877.5824175824176,882.014652014652,944.8717948717949,867.1062271062272,622.9304029304029,-0.106323,0.071106,0.996338,0.800018,-1.487885,0.261688,418241.758242,91143663.003663,56488424.908425,82.820663,1,2,1,2,2,60.000000
2025-05-02 16:01:55.142,,,,,,,,,,,,,,,,,,,,,,,,,,,,,,,,,,,,,,,,,,/muse/elements/blink
2025-05-02 16:01:55.152,1.075836652906557,1.085404709405798,0.4167861919358226,1.096255713680184,1.010374356415507,0.4295230681745799,0.5484593554422484,0.8787468028441515,0.9425414902899945,0.6068022185791708,0.5533088876157846,0.6778748692523305,0.3308432865710468,0.2198631624108894,0.2148940282772382,0.2851967360256215,-0.02055849133902353,-0.5110875235953354,-0.2950542834058306,-0.2212802646901629,1017.399267399267,785.7142857142858,796.1904761904763,1002.490842490843,687.8021978021978,-0.099182,0.066223,0.995056,0.351410,-1.517792,-1.360779,416630.036630,91017142.857143,56579487.179487,81.924706,1,2,1,2,2,60.000000
2025-05-02 16:01:56.161,1.075836652906557,1.085404709405798,0.4167861919358226,1.096255713680184,1.010374356415507,0.4295230681745799,0.5484593554422484,0.8787468028441515,0.9425414902899945,0.6068022185791708,0.5533088876157846,0.6778748692523305,0.3308432865710468,0.2198631624108894,0.2148940282772382,0.2851967360256215,-0.02055849133902353,-0.5110875235953354,-0.2950542834058306,-0.2212802646901629,1087.509157509158,803.8461538461539,728.4981684981685,1071.391941391941,743.8095238095239,-0.097839,0.064209,0.996765,0.904694,-1.824341,-0.695343,417435.897436,91119487.179487,56739853.479853,80.721512,1,2,1,1,2,60.000000
2025-05-02 16:01:56.683,,,,,,,,,,,,,,,,,,,,,,,,,,,,,,,,,,,,,,,,,,/muse/elements/blink
2025-05-02 16:01:57.110,,,,,,,,,,,,,,,,,,,,,,,,,,,,,,,,,,,,,,,,,,/muse/elements/blink
2025-05-02 16:01:57.150,1.075836652906557,1.085404709405798,0.4167861919358226,1.096255713680184,1.010374356415507,0.4295230681745799,0.5484593554422484,0.8787468028441515,0.9425414902899945,0.6068022185791708,0.5533088876157846,0.6778748692523305,0.3308432865710468,0.2198631624108894,0.2148940282772382,0.2851967360256215,-0.02055849133902353,-0.5110875235953354,-0.2950542834058306,-0.2212802646901629,328.7912087912088,652.7472527472528,293.7362637362638,321.9413919413919,584.6520146520147,-0.093750,0.063660,0.992798,0.433655,-1.712189,-0.515900,417435.897436,90903516.483516,56714065.934066,79.010712,1,2,1,2,2,60.000000
2025-05-02 16:01:57.385,,,,,,,,,,,,,,,,,,,,,,,,,,,,,,,,,,,,,,,,,,/muse/elements/blink
2025-05-02 16:01:57.577,,,,,,,,,,,,,,,,,,,,,,,,,,,,,,,,,,,,,,,,,,/muse/elements/blink
2025-05-02 16:01:58.151,1.075836652906557,1.085404709405798,0.4167861919358226,1.096255713680184,1.010374356415507,0.4295230681745799,0.5484593554422484,0.8787468028441515,0.9425414902899945,0.6068022185791708,0.5533088876157846,0.6778748692523305,0.3308432865710468,0.2198631624108894,0.2148940282772382,0.2851967360256215,-0.02055849133902353,-0.5110875235953354,-0.2950542834058306,-0.2212802646901629,643.4798534798535,530.6593406593407,477.0695970695971,633.8095238095239,552.4175824175825,-0.094666,0.060669,0.993774,0.605621,-1.211243,0.927124,417435.897436,90784249.084249,56743076.923077,77.501053,1,2,1,2,2,60.000000
2025-05-02 16:01:58.195,,,,,,,,,,,,,,,,,,,,,,,,,,,,,,,,,,,,,,,,,,/muse/elements/blink
2025-05-02 16:01:59.151,1.075836652906557,1.085404709405798,0.4167861919358226,1.096255713680184,1.010374356415507,0.4295230681745799,0.5484593554422484,0.8787468028441515,0.9425414902899945,0.6068022185791708,0.5533088876157846,0.6778748692523305,0.3308432865710468,0.2198631624108894,0.2148940282772382,0.2851967360256215,-0.02055849133902353,-0.5110875235953354,-0.2950542834058306,-0.2212802646901629,1057.692307692308,821.5750915750916,728.0952380952381,1044.798534798535,1217.655677655678,-0.097900,0.063965,0.999084,0.456085,-1.592560,-0.336456,417435.897436,90844688.644689,56810769.230769,76.361092,1,2,4,1,2,60.000000
2025-05-02 16:01:59.638,,,,,,,,,,,,,,,,,,,,,,,,,,,,,,,,,,,,,,,,,,/muse/elements/blink
2025-05-02 16:02:00.159,1.075836652906557,1.085404709405798,0.4167861919358226,1.096255713680184,1.010374356415507,0.4295230681745799,0.5484593554422484,0.8787468028441515,0.9425414902899945,0.6068022185791708,0.5533088876157846,0.6778748692523305,0.3308432865710468,0.2198631624108894,0.2148940282772382,0.2851967360256215,-0.02055849133902353,-0.5110875235953354,-0.2950542834058306,-0.2212802646901629,1029.89010989011,850.5860805860806,642.6739926739926,1021.025641025641,548.7912087912088,-0.095581,0.057068,0.995483,1.091614,-1.794434,-0.545807,417435.897436,90988131.868132,56913113.553114,75.489296,1,2,1,1,2,60.000000
2025-05-02 16:02:00.941,,,,,,,,,,,,,,,,,,,,,,,,,,,,,,,,,,,,,,,,,,/muse/elements/blink
2025-05-02 16:02:01.151,1.075836652906557,1.085404709405798,0.4167861919358226,1.096255713680184,1.010374356415507,0.4295230681745799,0.5484593554422484,0.8787468028441515,0.9425414902899945,0.6068022185791708,0.5533088876157846,0.6778748692523305,0.3308432865710468,0.2198631624108894,0.2148940282772382,0.2851967360256215,-0.02055849133902353,-0.5110875235953354,-0.2950542834058306,-0.2212802646901629,785.3113553113553,978.7179487179487,985.9706959706961,776.8498168498169,657.985347985348,-0.097839,0.056519,1.002808,-0.269165,-1.727142,0.381317,417435.897436,90905934.065934,56909890.109890,75.069885,1,2,1,1,2,60.000000
2025-05-02 16:02:01.240,,,,,,,,,,,,,,,,,,,,,,,,,,,,,,,,,,,,,,,,,,/muse/elements/blink
2025-05-02 16:02:02.151,1.075836652906557,1.085404709405798,0.4167861919358226,1.096255713680184,1.010374356415507,0.4295230681745799,0.5484593554422484,0.8787468028441515,0.9425414902899945,0.6068022185791708,0.5533088876157846,0.6778748692523305,0.3308432865710468,0.2198631624108894,0.2148940282772382,0.2851967360256215,-0.02055849133902353,-0.5110875235953354,-0.2950542834058306,-0.2212802646901629,860.2564102564103,739.3772893772893,572.967032967033,857.4358974358975,706.3369963369963,-0.098755,0.057007,1.000610,0.702820,-1.450500,0.530853,417435.897436,90703663.003663,56876043.956044,74.824165,1,2,1,1,2,60.000000
2025-05-02 16:02:03.151,1.075836652906557,1.085404709405798,0.4167861919358226,1.096255713680184,1.010374356415507,0.4295230681745799,0.5484593554422484,0.8787468028441515,0.9425414902899945,0.6068022185791708,0.5533088876157846,0.6778748692523305,0.3308432865710468,0.2198631624108894,0.2148940282772382,0.2851967360256215,-0.02055849133902353,-0.5110875235953354,-0.2950542834058306,-0.2212802646901629,574.1758241758242,835.6776556776557,833.6630036630037,571.7582417582418,577.3992673992674,-0.083618,0.058777,1.002075,0.657959,-1.450500,0.964508,418241.758242,90760073.260073,56906666.666667,74.431053,1,2,1,1,2,60.000000
2025-05-02 16:02:03.665,,,,,,,,,,,,,,,,,,,,,,,,,,,,,,,,,,,,,,,,,,/muse/elements/blink
2025-05-02 16:02:03.984,,,,,,,,,,,,,,,,,,,,,,,,,,,,,,,,,,,,,,,,,,/muse/elements/blink
2025-05-02 16:02:04.151,1.075836652906557,1.085404709405798,0.4167861919358226,1.096255713680184,1.010374356415507,0.4295230681745799,0.5484593554422484,0.8787468028441515,0.9425414902899945,0.6068022185791708,0.5533088876157846,0.6778748692523305,0.3308432865710468,0.2198631624108894,0.2148940282772382,0.2851967360256215,-0.02055849133902353,-0.5110875235953354,-0.2950542834058306,-0.2212802646901629,785.3113553113553,608.8278388278388,521.7948717948718,785.3113553113553,865.8974358974359,-0.093750,0.059082,1.000488,0.284119,-1.779480,-1.203766,418241.758242,90808424.908425,56893772.893773,73.228600,1,2,1,2,2,60.000000
2025-05-02 16:02:04.282,,,,,,,,,,,,,,,,,,,,,,,,,,,,,,,,,,,,,,,,,,/muse/elements/blink
2025-05-02 16:02:05.150,1.075836652906557,1.085404709405798,0.4167861919358226,1.096255713680184,1.010374356415507,0.4295230681745799,0.5484593554422484,0.8787468028441515,0.9425414902899945,0.6068022185791708,0.5533088876157846,0.6778748692523305,0.3308432865710468,0.2198631624108894,0.2148940282772382,0.2851967360256215,-0.02055849133902353,-0.5110875235953354,-0.2950542834058306,-0.2212802646901629,982.7472527472528,0.4029304029304029,684.981684981685,975.8974358974359,738.5714285714286,-0.107605,0.059021,1.002014,0.171967,-0.942078,-0.246735,419047.619048,90824542.124542,56862344.322344,72.929581,1,2,1,1,2,60.000000
2025-05-02 16:02:05.641,,,,,,,,,,,,,,,,,,,,,,,,,,,,,,,,,,,,,,,,,,/muse/elements/blink
2025-05-02 16:02:06.155,1.075836652906557,1.085404709405798,0.4167861919358226,1.096255713680184,1.010374356415507,0.4295230681745799,0.5484593554422484,0.8787468028441515,0.9425414902899945,0.6068022185791708,0.5533088876157846,0.6778748692523305,0.3308432865710468,0.2198631624108894,0.2148940282772382,0.2851967360256215,-0.02055849133902353,-0.5110875235953354,-0.2950542834058306,-0.2212802646901629,1006.520146520147,813.1135531135532,487.948717948718,994.4322344322345,608.4249084249085,-0.095825,0.058655,0.994690,0.859833,-2.048645,1.420593,418241.758242,90623076.923077,56770476.190476,73.032997,1,2,1,1,2,60.000000
2025-05-02 16:02:07.161,0.7841632293371823,1.085404709405798,0.4167861919358226,0.7794438921059273,0.695244431720626,0.4295230681745799,0.5484593554422484,0.4745816898235885,0.8109247243875457,0.6068022185791708,0.5533088876157846,0.7450528802538405,0.5298074048146131,0.2198631624108894,0.2148940282772382,0.6370845046378104,0.003202404949083156,-0.5110875235953354,-0.2950542834058306,0.1330678110156882,966.6300366300367,865.8974358974359,810.6959706959707,958.1684981684982,775.6410256410256,-0.091736,0.068787,0.993042,0.029907,-1.749573,-0.328979,418241.758242,90619853.479853,56696336.996337,71.990189,1,1,1,1,1,60.000000
2025-05-02 16:02:08.151,0.9507984372454075,1.085404709405798,0.4167861919358226,0.9030572377233385,0.4470463880539012,0.4295230681745799,0.5484593554422484,0.435177685901937,0.8494139653752604,0.6068022185791708,0.5533088876157846,0.7864313616784421,0.6166448935323474,0.2198631624108894,0.2148940282772382,0.6151030497518147,-0.02243951259811782,-0.5110875235953354,-0.2950542834058306,0.1597910431378008,911.8315018315019,852.1978021978023,713.992673992674,906.1904761904763,712.3809523809524,-0.093506,0.071228,1.000977,0.426178,-1.839294,0.366364,418241.758242,90569890.109890,56622197.802198,71.009483,1,1,1,1,1,60.000000
2025-05-02 16:02:08.684,,,,,,,,,,,,,,,,,,,,,,,,,,,,,,,,,,,,,,,,,,/muse/elements/blink
2025-05-02 16:02:09.153,1.047486711207473,1.085404709405798,0.4167861919358226,1.020057152616523,0.3696919725695633,0.4295230681745799,0.5484593554422484,0.3826034889679114,0.4380492065744299,0.6068022185791708,0.5533088876157846,0.4045505782250852,0.6355001399769664,0.2198631624108894,0.2148940282772382,0.5584782044775637,-0.03853050114741201,-0.5110875235953354,-0.2950542834058306,0.1839055615933511,864.6886446886447,850.5860805860806,734.5421245421246,865.0915750915751,545.5677655677656,-0.095093,0.070862,1.002869,0.515900,0.590668,-0.112152,420659.340659,90630329.670330,56613333.333333,72.340584,1,1,1,1,1,60.000000
2025-05-02 16:02:09.777,,,,,,,,,,,,,,,,,,,,,,,,,,,,,,,,,,,,,,,,,,/muse/elements/blink
2025-05-02 16:02:10.157,0.9528015270106813,1.085404709405798,0.4167861919358226,0.9837188534300297,0.4521372247047626,0.4295230681745799,0.5484593554422484,0.5166727354500049,0.3229237380278114,0.6068022185791708,0.5533088876157846,0.3314573139098447,0.6246792633940936,0.2198631624108894,0.2148940282772382,0.5254945907448216,0.0125800580466702,-0.5110875235953354,-0.2950542834058306,0.2728193287857911,647.9120879120879,734.1391941391942,1106.849816849817,642.2710622710623,627.3626373626374,-0.114380,0.074951,1.000366,0.927124,-1.420593,0.321503,419853.479853,90621465.201465,56500512.820513,73.678093,1,1,1,1,1,60.000000
2025-05-02 16:02:10.782,,,,,,,,,,,,,,,,,,,,,,,,,,,,,,,,,,,,,,,,,,/muse/elements/blink
2025-05-02 16:02:11.150,0.9528015270106813,1.085404709405798,0.4167861919358226,0.9837188534300297,0.4521372247047626,0.4295230681745799,0.5484593554422484,0.5166727354500049,0.3229237380278114,0.6068022185791708,0.5533088876157846,0.3314573139098447,0.6246792633940936,0.2198631624108894,0.2148940282772382,0.5254945907448216,0.0125800580466702,-0.5110875235953354,-0.2950542834058306,0.2728193287857911,506.4835164835165,667.2527472527473,637.032967032967,520.5860805860806,817.5457875457876,-0.128662,0.069092,0.991211,0.680389,-1.742096,-0.074768,419853.479853,90660146.520147,56388498.168498,73.972641,1,2,1,1,2,60.000000
2025-05-02 16:02:12.164,0.9528015270106813,1.085404709405798,0.4167861919358226,0.9837188534300297,0.4521372247047626,0.4295230681745799,0.5484593554422484,0.5166727354500049,0.3229237380278114,0.6068022185791708,0.5533088876157846,0.3314573139098447,0.6246792633940936,0.2198631624108894,0.2148940282772382,0.5254945907448216,0.0125800580466702,-0.5110875235953354,-0.2950542834058306,0.2728193287857911,842.5274725274726,343.2967032967033,567.3260073260074,835.2747252747253,638.2417582417582,-0.113831,0.073303,0.992798,0.844879,-2.198181,-0.471039,420659.340659,90729450.549451,56266007.326007,75.393448,1,2,1,1,2,60.000000
2025-05-02 16:02:12.346,,,,,,,,,,,,,,,,,,,,,,,,,,,,,,,,,,,,,,,,,,/muse/elements/blink
2025-05-02 16:02:12.543,,,,,,,,,,,,,,,,,,,,,,,,,,,,,,,,,,,,,,,,,,/muse/elements/blink
2025-05-02 16:02:13.163,0.9528015270106813,1.085404709405798,0.4167861919358226,0.9837188534300297,0.4521372247047626,0.4295230681745799,0.5484593554422484,0.5166727354500049,0.3229237380278114,0.6068022185791708,0.5533088876157846,0.3314573139098447,0.6246792633940936,0.2198631624108894,0.2148940282772382,0.5254945907448216,0.0125800580466702,-0.5110875235953354,-0.2950542834058306,0.2728193287857911,969.4505494505495,884.8351648351648,726.0805860805862,967.032967032967,603.1868131868132,-0.118042,0.080688,0.983826,-0.403748,-1.158905,-1.517792,419853.479853,90316043.956044,55983956.043956,78.773758,1,2,1,1,2,60.000000
2025-05-02 16:02:14.150,0.9528015270106813,1.085404709405798,0.4167861919358226,0.9837188534300297,0.4521372247047626,0.4295230681745799,0.5484593554422484,0.5166727354500049,0.3229237380278114,0.6068022185791708,0.5533088876157846,0.3314573139098447,0.6246792633940936,0.2198631624108894,0.2148940282772382,0.5254945907448216,0.0125800580466702,-0.5110875235953354,-0.2950542834058306,0.2728193287857911,911.4285714285714,866.3003663003664,788.1318681318681,910.6227106227107,655.9706959706959,-0.132507,0.070312,0.993774,0.029907,-0.777588,-0.433655,419853.479853,90126666.666667,55870329.670330,81.054794,1,2,1,1,2,60.000000
2025-05-02 16:02:15.150,1.01731862325766,1.549820949568601,0.4167861919358226,0.9903978159556559,0.5905520354673818,0.3790881776031665,0.5484593554422484,0.09922359252464499,0.7805150927191847,0.6478518764738661,0.5533088876157846,0.4392674041309286,0.596629577740837,0.4401994199431193,0.2148940282772382,0.3830938458307752,-0.001565767636189322,0.2891424196350703,-0.2950542834058306,0.05923644035555383,940.8424908424909,819.96336996337,794.5787545787546,937.2161172161173,639.4505494505495,-0.139343,0.069580,0.994507,0.396271,-0.067291,-0.112152,419853.479853,90215311.355311,55927545.787546,81.550110,1,1,1,1,1,60.000000
2025-05-02 16:02:15.161,,,,,,,,,,,,,,,,,,,,,,,,,,,,,,,,,,,,,,,,,,/muse/elements/blink
2025-05-02 16:02:16.155,0.9144767028053453,1.301418253632822,1.186243547678578,0.7382843802473004,0.4992492368903758,0.5957533669121434,0.6776383912451519,0.01812879712081359,0.7805150927191847,0.6826942807319634,1.079272574102164,0.2503832319233201,0.6012051824380665,0.4841009424697596,0.4442931311875198,0.4096544769554699,0.007705888812495645,0.2627932448492348,0.1008472494256033,0.1538708514923929,814.3223443223443,616.4835164835165,795.7875457875458,804.6520146520147,708.3516483516484,-0.155762,0.067749,1.001648,-0.299072,-1.323395,-0.882263,419853.479853,90254798.534799,55935604.395604,80.135811,1,1,1,1,1,60.000000
2025-05-02 16:02:17.150,0.9144767028053453,1.301418253632822,1.186243547678578,0.7382843802473004,0.4992492368903758,0.5957533669121434,0.6776383912451519,0.01812879712081359,0.7805150927191847,0.6826942807319634,1.079272574102164,0.2503832319233201,0.6012051824380665,0.4841009424697596,0.4442931311875198,0.4096544769554699,0.007705888812495645,0.2627932448492348,0.1008472494256033,0.1538708514923929,498.8278388278388,1016.593406593407,780.8791208791209,488.3516483516484,684.981684981685,-0.141418,0.073059,0.993286,0.044861,-2.228088,1.353302,420659.340659,90261245.421245,55867106.227106,77.459846,1,1,1,1,1,60.000000
2025-05-02 16:02:18.035,,,,,,,,,,,,,,,,,,,,,,,,,,,,,,,,,,,,,,,,,,/muse/elements/blink
2025-05-02 16:02:18.157,0.9144767028053453,1.301418253632822,1.186243547678578,0.7382843802473004,0.4992492368903758,0.5957533669121434,0.6776383912451519,0.01812879712081359,0.7805150927191847,0.6826942807319634,1.079272574102164,0.2503832319233201,0.6012051824380665,0.4841009424697596,0.4442931311875198,0.4096544769554699,0.007705888812495645,0.2627932448492348,0.1008472494256033,0.1538708514923929,903.3699633699634,909.8168498168499,768.7912087912088,893.6996336996338,528.6446886446887,-0.152100,0.082764,0.986938,1.465454,-1.562653,-0.867310,419853.479853,90113772.893773,55736556.776557,74.471962,1,2,1,1,2,60.000000
2025-05-02 16:02:19.162,0.9144767028053453,1.301418253632822,1.186243547678578,0.7382843802473004,0.4992492368903758,0.5957533669121434,0.6776383912451519,0.01812879712081359,0.7805150927191847,0.6826942807319634,1.079272574102164,0.2503832319233201,0.6012051824380665,0.4841009424697596,0.4442931311875198,0.4096544769554699,0.007705888812495645,0.2627932448492348,0.1008472494256033,0.1538708514923929,998.8644688644689,826.007326007326,677.3260073260074,985.9706959706961,624.9450549450549,-0.151489,0.076965,0.991272,0.747681,-1.794434,-0.269165,419853.479853,89988058.608059,55488351.648352,72.487961,1,2,1,1,2,60.000000
2025-05-02 16:02:20.151,0.9144767028053453,1.301418253632822,1.186243547678578,0.7382843802473004,0.4992492368903758,0.5957533669121434,0.6776383912451519,0.01812879712081359,0.7805150927191847,0.6826942807319634,1.079272574102164,0.2503832319233201,0.6012051824380665,0.4841009424697596,0.4442931311875198,0.4096544769554699,0.007705888812495645,0.2627932448492348,0.1008472494256033,0.1538708514923929,880,767.5824175824176,701.5018315018315,886.4468864468864,701.5018315018315,-0.154114,0.079895,0.990845,0.650482,-0.897217,1.106567,420659.340659,89728571.428571,55402930.402930,70.888496,1,2,1,1,2,60.000000
2025-05-02 16:02:21.151,0.9268907136303082,1.301418253632822,1.186243547678578,0.9125070786477631,0.1104344870521717,0.5957533669121434,0.6776383912451519,0.6771201013850794,0.5592493888451004,0.6826942807319634,1.079272574102164,0.5543166564962368,0.3788027224940984,0.4841009424697596,0.4442931311875198,0.1816883955708861,-0.1135926882310327,0.2627932448492348,0.1008472494256033,0.04931539656764264,860.6593406593407,794.5787545787546,712.7838827838829,850.1831501831502,565.3113553113553,-0.155579,0.072144,0.978088,-0.261688,-0.388794,-0.411224,421465.201465,89803516.483516,55366666.666667,70.458862,1,1,1,1,1,60.000000
2025-05-02 16:02:22.151,0.9891696911135898,1.050643483512153,1.186243547678578,0.894727211172513,0.3751564347736507,0.6569718092535699,0.6776383912451519,0.5806936860755313,0.8082435619093857,0.6070360594107264,1.079272574102164,0.7048069278754178,0.2949293210693443,0.4035925603257415,0.4442931311875198,0.2679040148395749,-0.03979381603357276,0.1054155067105446,0.1008472494256033,0.01018614926787457,846.959706959707,808.6813186813187,727.2893772893773,828.4249084249085,655.1648351648352,-0.135864,0.068909,0.989807,0.613098,-0.897217,0.007477,420659.340659,89493260.073260,55196630.036630,71.145462,1,1,1,1,1,60.000000
2025-05-02 16:02:22.292,,,,,,,,,,,,,,,,,,,,,,,,,,,,,,,,,,,,,,,,,,/muse/elements/blink
2025-05-02 16:02:22.705,,,,,,,,,,,,,,,,,,,,,,,,,,,,,,,,,,,,,,,,,,/muse/elements/blink
2025-05-02 16:02:23.150,0.8982960478256182,1.020189759526971,1.007201546277072,0.749462299200843,0.5683299522428421,0.7052328807856957,0.5365138594280611,0.4174173470851262,0.6970470607966196,0.4709052505665003,0.7892696143719973,0.6199130985280404,0.3146093143396926,0.4261676664079246,0.5064540635604659,0.3244359234995118,-0.2527363306163175,0.1642332504651778,-0.1043722678242119,-0.07970566997456799,585.0549450549451,425.8974358974359,824.7985347985348,610.4395604395604,707.1428571428571,-0.154785,0.076172,0.989563,0.792542,1.039276,-0.254211,420659.340659,89547252.747253,55175677.655678,73.802879,1,1,1,1,1,60.000000
2025-05-02 16:02:23.691,,,,,,,,,,,,,,,,,,,,,,,,,,,,,,,,,,,,,,,,,,/muse/elements/blink
2025-05-02 16:02:23.908,,,,,,,,,,,,,,,,,,,,,,,,,,,,,,,,,,,,,,,,,,/muse/elements/blink
2025-05-02 16:02:24.102,,,,,,,,,,,,,,,,,,,,,,,,,,,,,,,,,,,,,,,,,,/muse/elements/blink
2025-05-02 16:02:24.161,0.8929094286049429,1.020189759526971,1.007201546277072,0.749462299200843,0.5656066070885738,0.7052328807856957,0.5365138594280611,0.4174173470851262,0.6966593842139186,0.4709052505665003,0.7892696143719973,0.6199130985280404,0.3149763209336838,0.4261676664079246,0.5064540635604659,0.3244359234995118,-0.263891377503167,0.1642332504651778,-0.1043722678242119,-0.07970566997456799,910.2197802197802,883.2234432234433,724.4688644688645,919.0842490842491,620.9157509157509,-0.166565,0.069092,0.981201,-0.411224,-4.082336,-0.299072,421465.201465,89280512.820513,55024175.824176,77.613602,1,1,1,1,1,60.000000
2025-05-02 16:02:25.156,0.8929094286049429,1.020189759526971,1.007201546277072,0.749462299200843,0.5656066070885738,0.7052328807856957,0.5365138594280611,0.4174173470851262,0.6966593842139186,0.4709052505665003,0.7892696143719973,0.6199130985280404,0.3149763209336838,0.4261676664079246,0.5064540635604659,0.3244359234995118,-0.263891377503167,0.1642332504651778,-0.1043722678242119,-0.07970566997456799,888.8644688644689,811.9047619047619,648.3150183150183,875.1648351648352,824.7985347985348,-0.157593,0.075195,0.983582,0.478516,-1.450500,-0.007477,420659.340659,89375604.395604,54912967.032967,80.318436,1,2,1,1,2,60.000000
2025-05-02 16:02:26.150,0.7320586285733179,0.446101234582772,1.007201546277072,0.5433630589078013,0.3990548858165461,0.3503178227583348,0.5365138594280611,0.6133549043258161,0.5686306463364355,0.6676042312835948,0.7892696143719973,0.6008124412288143,0.31345610683424,0.4132708784226516,0.5064540635604659,0.4065201614050219,0.1074254313560057,0.08588189835551549,-0.1043722678242119,0.03312485070213741,882.4175824175825,820.7692307692308,739.7802197802198,876.7765567765568,623.7362637362637,-0.145691,0.076477,0.991760,0.231781,-1.921539,-0.097198,421465.201465,89108864.468864,54764688.644689,83.704163,1,1,1,1,1,60.000000
2025-05-02 16:02:27.164,0.7965918743393592,0.8802218693237313,1.007201546277072,0.5283346479145171,0.5596567943471134,0.3186080113336896,0.5365138594280611,0.5935119079860338,0.5572133469100649,0.780192166443356,0.7892696143719973,0.631180123938279,0.2497490960831406,0.4472034602891137,0.5064540635604659,0.3071859156198449,0.01482548145391402,0.06092198836298038,-0.1043722678242119,-0.01866150085277051,861.4652014652015,846.5567765567765,769.1941391941392,865.4945054945056,612.4542124542124,-0.143555,0.072693,1.003052,0.590668,-1.831818,0.104675,421465.201465,89229743.589744,54789670.329670,87.698189,1,1,1,1,1,60.000000
2025-05-02 16:02:28.150,0.7345654639032844,0.9486249814012144,0.8361602624938597,0.6676095817247002,0.6549725016324059,0.4523699096335683,0.6042629534164177,0.4161943607504464,0.5643646790400364,0.6875152964778806,0.837488964800216,0.4754227172911602,0.1989224964049252,0.4568906081989504,0.3361687049158258,0.3431774955211367,0.08565238391942522,-0.01452810119221026,-0.1128895571580182,-0.02476970200514486,854.6153846153846,742.1978021978023,799.8168498168499,855.0183150183151,726.4835164835165,-0.136536,0.071838,0.991699,0.142059,-1.742096,1.188812,420659.340659,88955750.915751,54662344.322344,90.637306,1,1,1,1,1,60.000000
2025-05-02 16:02:29.151,1.119440293947976,1.096453539273113,0.9148049375882362,0.8866243398716716,0.7042853956658433,0.656608928035376,0.5854828916580939,0.3737742058222652,0.536671147481543,0.3296476053514103,0.6223873581938428,0.3572045891792602,0.192379972981356,0.3876073061648336,0.3856908540061606,0.4014349297186658,0.1824950571293455,-0.1095085879634043,-0.03476032437358718,-0.06730879874753092,800.6227106227107,792.5641025641025,744.6153846153846,797.3992673992674,641.4652014652015,-0.159973,0.053650,0.995544,0.650482,-2.130890,-0.082245,419853.479853,89106446.886447,54725201.465201,91.649651,1,1,1,1,1,60.000000
2025-05-02 16:02:30.027,,,,,,,,,,,,,,,,,,,,,,,,,,,,,,,,,,,,,,,,,,/muse/elements/blink
2025-05-02 16:02:30.151,1.255163374031306,1.096453539273113,0.9148049375882362,0.8866243398716716,0.7845759444572987,0.656608928035376,0.5854828916580939,0.3737742058222652,0.4693528132817447,0.3296476053514103,0.6223873581938428,0.3572045891792602,0.3314329191164859,0.3876073061648336,0.3856908540061606,0.4014349297186658,0.1835779441770759,-0.1095085879634043,-0.03476032437358718,-0.06730879874753092,516.1538461538462,178.0952380952381,1000.07326007326,523.8095238095239,780.8791208791209,-0.143860,0.069763,0.981506,0.800018,-2.026215,-1.203766,419853.479853,89054871.794872,54684102.564103,92.076584,1,1,1,1,1,60.000000
2025-05-02 16:02:30.704,,,,,,,,,,,,,,,,,,,,,,,,,,,,,,,,,,,,,,,,,,/muse/elements/blink
2025-05-02 16:02:30.986,,,,,,,,,,,,,,,,,,,,,,,,,,,,,,,,,,,,,,,,,,/muse/elements/blink
2025-05-02 16:02:31.151,1.255163374031306,1.096453539273113,0.9148049375882362,0.8866243398716716,0.7845759444572987,0.656608928035376,0.5854828916580939,0.3737742058222652,0.4693528132817447,0.3296476053514103,0.6223873581938428,0.3572045891792602,0.3314329191164859,0.3876073061648336,0.3856908540061606,0.4014349297186658,0.1835779441770759,-0.1095085879634043,-0.03476032437358718,-0.06730879874753092,681.3553113553114,244.981684981685,543.5531135531136,676.5201465201466,732.1245421245421,-0.118469,0.079163,1.002686,1.465454,-1.547699,-0.142059,419853.479853,89168498.168498,54584981.684982,92.596664,1,2,4,1,2,60.000000
2025-05-02 16:02:31.332,,,,,,,,,,,,,,,,,,,,,,,,,,,,,,,,,,,,,,,,,,/muse/elements/blink
2025-05-02 16:02:31.508,,,,,,,,,,,,,,,,,,,,,,,,,,,,,,,,,,,,,,,,,,/muse/elements/blink
2025-05-02 16:02:31.706,,,,,,,,,,,,,,,,,,,,,,,,,,,,,,,,,,,,,,,,,,/muse/elements/blink
2025-05-02 16:02:31.924,,,,,,,,,,,,,,,,,,,,,,,,,,,,,,,,,,,,,,,,,,/muse/elements/blink
2025-05-02 16:02:32.155,1.255163374031306,1.096453539273113,0.9148049375882362,0.8866243398716716,0.7845759444572987,0.656608928035376,0.5854828916580939,0.3737742058222652,0.4693528132817447,0.3296476053514103,0.6223873581938428,0.3572045891792602,0.3314329191164859,0.3876073061648336,0.3856908540061606,0.4014349297186658,0.1835779441770759,-0.1095085879634043,-0.03476032437358718,-0.06730879874753092,588.6813186813187,879.5970695970697,655.1648351648352,597.948717948718,715.6043956043957,-0.120239,0.080139,0.991882,0.717773,-2.041168,-0.321503,420659.340659,88958168.498168,54464102.564103,91.858398,1,2,4,1,2,60.000000
2025-05-02 16:02:32.466,,,,,,,,,,,,,,,,,,,,,,,,,,,,,,,,,,,,,,,,,,/muse/elements/blink
2025-05-02 16:02:33.153,1.255163374031306,1.096453539273113,0.9148049375882362,0.8866243398716716,0.7845759444572987,0.656608928035376,0.5854828916580939,0.3737742058222652,0.4693528132817447,0.3296476053514103,0.6223873581938428,0.3572045891792602,0.3314329191164859,0.3876073061648336,0.3856908540061606,0.4014349297186658,0.1835779441770759,-0.1095085879634043,-0.03476032437358718,-0.06730879874753092,877.985347985348,2.014652014652015,685.7875457875458,877.985347985348,586.2637362637363,-0.114380,0.072510,1.007019,1.375732,-1.353302,0.777588,421465.201465,88517362.637363,54298901.098901,86.170776,1,2,4,1,2,60.000000
2025-05-02 16:02:34.032,,,,,,,,,,,,,,,,,,,,,,,,,,,,,,,,,,,,,,,,,,/muse/elements/blink
2025-05-02 16:02:34.152,1.255163374031306,1.096453539273113,0.9148049375882362,0.8866243398716716,0.7845759444572987,0.656608928035376,0.5854828916580939,0.3737742058222652,0.4693528132817447,0.3296476053514103,0.6223873581938428,0.3572045891792602,0.3314329191164859,0.3876073061648336,0.3856908540061606,0.4014349297186658,0.1835779441770759,-0.1095085879634043,-0.03476032437358718,-0.06730879874753092,764.3589743589744,951.3186813186813,719.6336996336996,766.7765567765568,656.7765567765568,-0.119690,0.078003,0.992249,0.672913,-1.300964,-0.605621,420659.340659,88162783.882784,54196556.776557,79.474121,1,2,2,1,2,60.000000
2025-05-02 16:02:34.662,,,,,,,,,,,,,,,,,,,,,,,,,,,,,,,,,,,,,,,,,,/muse/elements/blink
2025-05-02 16:02:35.152,1.255163374031306,1.096453539273113,0.9148049375882362,0.8866243398716716,0.7845759444572987,0.656608928035376,0.5854828916580939,0.3737742058222652,0.4693528132817447,0.3296476053514103,0.6223873581938428,0.3572045891792602,0.3314329191164859,0.3876073061648336,0.3856908540061606,0.4014349297186658,0.1835779441770759,-0.1095085879634043,-0.03476032437358718,-0.06730879874753092,840.1098901098901,754.6886446886447,662.8205128205128,840.9157509157509,528.6446886446887,-0.118286,0.077332,0.995300,0.725250,-3.020630,0.897217,418241.758242,87951648.351648,54151428.571429,74.628357,1,2,4,1,2,60.000000
2025-05-02 16:02:35.356,,,,,,,,,,,,,,,,,,,,,,,,,,,,,,,,,,,,,,,,,,/muse/elements/blink
2025-05-02 16:02:36.152,1.255163374031306,1.096453539273113,0.9148049375882362,0.8866243398716716,0.7845759444572987,0.656608928035376,0.5854828916580939,0.3737742058222652,0.4693528132817447,0.3296476053514103,0.6223873581938428,0.3572045891792602,0.3314329191164859,0.3876073061648336,0.3856908540061606,0.4014349297186658,0.1835779441770759,-0.1095085879634043,-0.03476032437358718,-0.06730879874753092,748.6446886446887,659.5970695970697,673.2967032967033,763.5531135531136,599.1575091575091,-0.112427,0.074036,0.998779,0.725250,-0.837402,-0.979462,420659.340659,88083809.523810,54204615.384615,72.936668,1,2,2,1,2,60.000000
2025-05-02 16:02:36.203,,,,,,,,,,,,,,,,,,,,,,,,,,,,,,,,,,,,,,,,,,/muse/elements/blink
2025-05-02 16:02:36.383,,,,,,,,,,,,,,,,,,,,,,,,,,,,,,,,,,,,,,,,,,/muse/elements/blink
2025-05-02 16:02:37.082,,,,,,,,,,,,,,,,,,,,,,,,,,,,,,,,,,,,,,,,,,/muse/elements/blink
2025-05-02 16:02:37.150,1.255163374031306,1.096453539273113,0.9148049375882362,0.8866243398716716,0.7845759444572987,0.656608928035376,0.5854828916580939,0.3737742058222652,0.4693528132817447,0.3296476053514103,0.6223873581938428,0.3572045891792602,0.3314329191164859,0.3876073061648336,0.3856908540061606,0.4014349297186658,0.1835779441770759,-0.1095085879634043,-0.03476032437358718,-0.06730879874753092,1069.78021978022,906.5934065934066,827.6190476190476,1053.260073260073,755.0915750915751,-0.115234,0.076660,0.995605,1.577606,-3.192596,0.186920,421465.201465,87782417.582418,54221538.461538,73.169830,1,2,2,1,2,60.000000
2025-05-02 16:02:38.150,1.255163374031306,1.096453539273113,0.9148049375882362,0.8866243398716716,0.7845759444572987,0.656608928035376,0.5854828916580939,0.3737742058222652,0.4693528132817447,0.3296476053514103,0.6223873581938428,0.3572045891792602,0.3314329191164859,0.3876073061648336,0.3856908540061606,0.4014349297186658,0.1835779441770759,-0.1095085879634043,-0.03476032437358718,-0.06730879874753092,1003.699633699634,778.4615384615385,768.7912087912088,1002.893772893773,551.6117216117216,-0.112732,0.073669,0.997192,0.441132,-1.884155,0.740204,421465.201465,87256190.476190,54037802.197802,74.822289,1,2,2,1,2,60.000000
2025-05-02 16:02:39.150,1.238776363666467,1.096453539273113,0.9148049375882362,1.30451930755509,0.7040241548474577,0.656608928035376,0.5854828916580939,0.7963871082544377,1.183317529627552,0.3296476053514103,0.6223873581938428,1.007640922830981,0.7616596663528054,0.3876073061648336,0.3856908540061606,0.7502493714820109,-0.09200608411946301,-0.1095085879634043,-0.03476032437358718,0.135358487880849,970.6593406593407,735.7509157509157,785.3113553113553,971.8681318681319,611.6483516483516,-0.107910,0.075195,0.999512,0.874786,-1.114044,-1.046753,421465.201465,87171575.091575,53995897.435897,75.231293,1,1,1,1,1,60.000000
2025-05-02 16:02:40.150,1.092093100839754,1.096453539273113,1.107633649641234,1.189495771564761,0.6307080250107332,0.656608928035376,0.7136862501559099,0.793647313738195,1.229351681260089,0.3296476053514103,1.297669054223056,1.099358092289643,0.6824301518917664,0.3876073061648336,0.6315683554041271,0.6807336293993732,-0.1106776726258045,-0.1095085879634043,0.03949984560212035,0.02053253244326076,944.4688644688645,730.5128205128206,757.1062271062272,934.7985347985348,596.3369963369963,-0.109558,0.079102,0.996094,0.074768,-2.265472,0.919647,420659.340659,86995091.575092,53955604.395604,106.850243,1,1,1,1,1,60.000000
2025-05-02 16:02:41.150,1.334190832909434,0.8567857674017374,1.147419873163448,1.415562910991676,0.8729031611561031,0.7388547197730533,0.8197419917550562,1.014547803386543,0.9274176054738048,0.8421916278097208,1.26122554972318,1.044924938768344,0.6170391592963519,0.7854239107450284,0.7813743551638489,0.7204369114024971,-0.1032061527622836,0.0006561138887819034,0.01515755967475328,-0.07413503093778795,527.032967032967,597.1428571428571,857.032967032967,520.989010989011,584.2490842490843,-0.122070,0.064758,0.995422,0.971985,-1.786957,0.358887,420659.340659,86829890.109890,53879853.479853,95.432205,1,1,1,1,1,60.000000
2025-05-02 16:02:41.681,,,,,,,,,,,,,,,,,,,,,,,,,,,,,,,,,,,,,,,,,,/muse/elements/blink
2025-05-02 16:02:41.877,,,,,,,,,,,,,,,,,,,,,,,,,,,,,,,,,,,,,,,,,,/muse/elements/blink
2025-05-02 16:02:42.152,1.527900968869853,0.8567857674017374,1.288546201211389,1.553299985094436,0.9228309707362458,0.7388547197730533,0.9103336190615285,0.9046228443777392,0.8458117679009437,0.8421916278097208,1.25663519561734,0.8984234002398809,0.5909935587259288,0.7854239107450284,0.9187410347231214,0.7375306124558139,-0.1270399058158032,0.0006561138887819034,0.105319304430876,-0.02754439021650375,451.2820512820513,772.8205128205128,681.3553113553114,458.1318681318681,826.4102564102565,-0.102234,0.069702,0.997314,0.291595,-1.495361,-1.166382,419853.479853,87042637.362637,53885494.505495,89.200958,1,1,1,1,1,60.000000
2025-05-02 16:02:42.203,,,,,,,,,,,,,,,,,,,,,,,,,,,,,,,,,,,,,,,,,,/muse/elements/blink
2025-05-02 16:02:42.793,,,,,,,,,,,,,,,,,,,,,,,,,,,,,,,,,,,,,,,,,,/muse/elements/blink
2025-05-02 16:02:43.150,1.527900968869853,0.8567857674017374,1.288546201211389,1.553299985094436,0.9228309707362458,0.7388547197730533,0.9103336190615285,0.9046228443777392,0.8458117679009437,0.8421916278097208,1.25663519561734,0.8984234002398809,0.5909935587259288,0.7854239107450284,0.9187410347231214,0.7375306124558139,-0.1270399058158032,0.0006561138887819034,0.105319304430876,-0.02754439021650375,955.3479853479854,750.2564102564103,730.5128205128206,956.5567765567766,696.2637362637363,-0.097412,0.078918,0.997742,0.575714,-2.355194,1.315918,421465.201465,86984615.384615,53819413.919414,85.562241,1,1,1,1,1,60.000000
2025-05-02 16:02:44.153,1.527900968869853,0.8567857674017374,1.288546201211389,1.553299985094436,0.9228309707362458,0.7388547197730533,0.9103336190615285,0.9046228443777392,0.8458117679009437,0.8421916278097208,1.25663519561734,0.8984234002398809,0.5909935587259288,0.7854239107450284,0.9187410347231214,0.7375306124558139,-0.1270399058158032,0.0006561138887819034,0.105319304430876,-0.02754439021650375,933.992673992674,706.7399267399268,725.2747252747253,934.7985347985348,549.1941391941392,-0.104858,0.071045,0.993469,0.022430,-1.016846,0.463562,420659.340659,86797655.677656,53652600.732601,82.073700,1,2,1,1,2,60.000000
2025-05-02 16:02:45.152,0.4849096828578708,0.8567857674017374,1.288546201211389,0.5645393659163949,0.3477338692243937,0.7388547197730533,0.9103336190615285,0.3965611856357348,0.7635710402985407,0.8421916278097208,1.25663519561734,0.7771686100268415,0.5072472728977363,0.7854239107450284,0.9187410347231214,0.6588255838023808,0.117740664579749,0.0006561138887819034,0.105319304430876,0.1247206584699737,942.4542124542124,787.3260073260074,754.2857142857143,934.3956043956044,661.2087912087912,-0.110535,0.074341,1.000854,0.426178,-1.338348,-0.164490,420659.340659,86859706.959707,53620366.300366,80.268715,1,1,1,1,1,60.000000
2025-05-02 16:02:45.246,,,,,,,,,,,,,,,,,,,,,,,,,,,,,,,,,,,,,,,,,,/muse/elements/blink
2025-05-02 16:02:46.152,0.5088630771376724,0.8567857674017374,0.4539944985300803,0.4428583245639232,0.2717217805730316,0.7388547197730533,0.27268182759328,0.4707759478518517,0.3759999253178232,0.8421916278097208,0.4480915161105199,0.6672606050461849,0.371923648495009,0.7854239107450284,0.5356572611463035,0.6261281237757234,0.06054313883193006,0.0006561138887819034,-0.04960736197125958,0.104018147243834,890.4761904761905,829.6336996336996,773.6263736263736,889.2673992673992,720.4395604395604,-0.122803,0.066833,1.001709,-0.179443,-0.710297,-0.321503,420659.340659,86987838.827839,53636483.516484,79.245171,1,1,1,1,1,60.000000
2025-05-02 16:02:47.150,0.5088630771376724,1.035637489994579,0.6857323502275955,1.029043591812354,0.2717217805730316,0.3490077234458906,0.464864635934634,0.590487747303604,0.3759999253178232,0.8639554499078,0.5255260012578308,0.2589064962953879,0.371923648495009,0.4717981177237538,0.4292017580414473,0.2950869774918223,0.06054313883193006,0.03494637240228612,-0.01220523146043167,-0.1333344684592071,832.4542124542124,791.3553113553114,749.047619047619,831.2454212454213,529.047619047619,-0.104614,0.074158,0.996033,0.216827,-1.510315,-1.622467,421465.201465,86950769.230769,53555091.575092,78.646774,1,1,1,1,1,60.000000
2025-05-02 16:02:47.457,,,,,,,,,,,,,,,,,,,,,,,,,,,,,,,,,,,,,,,,,,/muse/elements/blink
2025-05-02 16:02:48.150,0.5088630771376724,1.19895441617813,0.7632806919749177,1.031615294995,0.2717217805730316,0.6727464289837186,0.4410682907345674,0.562085796854727,0.3759999253178232,0.6701930890932828,0.68554516811904,0.283141844815464,0.371923648495009,0.3898674746628489,0.4776592162938593,0.2823680062058322,0.06054313883193006,0.03115053042316628,-0.07879369884893379,-0.1127347968058304,842.1245421245421,857.8388278388279,765.9706959706959,835.2747252747253,599.5604395604396,-0.113586,0.072205,0.996155,1.031799,-1.510315,0.381317,420659.340659,86808937.728938,53511575.091575,77.184410,1,1,1,1,1,60.000000
2025-05-02 16:02:49.152,0.5088630771376724,1.222084868584103,0.9208580301404135,1.001507160097595,0.2717217805730316,0.8492379964463982,0.4463851068570246,0.72331465556832,0.3759999253178232,0.6662399504984772,0.6511925460684257,0.7652561101912024,0.371923648495009,0.2845575868274252,0.4149423494167329,0.4222475798019188,0.06054313883193006,0.1152930949755281,-0.1239114226551514,-0.04541953508654756,774.8351648351648,743.0036630036631,823.1868131868132,767.5824175824176,895.3113553113553,-0.114746,0.072083,0.994690,0.732727,-0.732727,-0.082245,420659.340659,86854065.934066,53550256.410256,76.356224,1,1,1,1,1,60.000000
2025-05-02 16:02:49.782,,,,,,,,,,,,,,,,,,,,,,,,,,,,,,,,,,,,,,,,,,/muse/elements/blink
2025-05-02 16:02:50.150,0.5088630771376724,1.006137550217449,1.192730947234383,1.001800774133425,0.2717217805730316,1.035005232334933,0.4382903706529833,0.7148029974845312,0.3759999253178232,0.746102906308467,0.4398566933622998,0.7455004047151276,0.371923648495009,0.3417811644546351,0.0748399620976309,0.4475170246414508,0.06054313883193006,-0.03984688974210725,-0.1690115520391423,-0.0779810888010648,817.5457875457876,757.1062271062272,745.4212454212454,804.6520146520147,628.5714285714286,-0.119141,0.070068,0.995972,-0.269165,-0.912170,-0.171967,421465.201465,86859706.959707,53559926.739927,75.085754,1,1,1,1,1,60.000000
2025-05-02 16:02:51.150,0.5088630771376724,0.9313856862326813,1.192730947234383,1.001800774133425,0.2717217805730316,0.9797831712588647,0.4382903706529833,0.7148029974845312,0.3759999253178232,0.7570835554676756,0.4398566933622998,0.7455004047151276,0.371923648495009,0.3593697866761758,0.0748399620976309,0.4475170246414508,0.06054313883193006,-0.03766362193655063,-0.1690115520391423,-0.0779810888010648,708.3516483516484,822.7838827838829,785.3113553113553,702.7106227106227,777.2527472527473,-0.089844,0.071411,0.999207,0.448608,-0.874786,-0.530853,421465.201465,86623589.743590,53420512.820513,74.781662,1,1,1,1,1,60.000000
2025-05-02 16:02:51.200,,,,,,,,,,,,,,,,,,,,,,,,,,,,,,,,,,,,,,,,,,/muse/elements/blink
2025-05-02 16:02:52.151,0.5088630771376724,0.8920655932339792,1.192730947234383,1.001800774133425,0.2717217805730316,0.8185083120035455,0.4382903706529833,0.7148029974845312,0.3759999253178232,0.5521222052039712,0.4398566933622998,0.7455004047151276,0.371923648495009,0.3515908130802324,0.0748399620976309,0.4475170246414508,0.06054313883193006,-0.00620348065911382,-0.1690115520391423,-0.0779810888010648,817.1428571428571,823.5897435897436,759.92673992674,811.0989010989011,680.1465201465202,-0.098511,0.074646,0.997681,0.246735,-2.108459,-0.052338,420659.340659,86575238.095238,53377802.197802,75.843803,1,2,1,1,2,60.000000
2025-05-02 16:02:53.154,0.5088630771376724,0.8920655932339792,0.7677840222299701,1.001800774133425,0.2717217805730316,0.8185083120035455,0.5282728996352385,0.7148029974845312,0.3759999253178232,0.5521222052039712,0.2411342010805947,0.7455004047151276,0.371923648495009,0.3515908130802324,0.2850675658535897,0.4475170246414508,0.06054313883193006,-0.00620348065911382,0.08268639606247147,-0.0779810888010648,815.5311355311355,798.2051282051282,744.6153846153846,813.919413919414,550,-0.086853,0.072388,0.994995,0.538330,-2.953339,0.560760,421465.201465,86667912.087912,53393919.413919,77.019691,1,2,1,1,2,60.000000
2025-05-02 16:02:53.448,,,,,,,,,,,,,,,,,,,,,,,,,,,,,,,,,,,,,,,,,,/muse/elements/blink
2025-05-02 16:02:54.160,0.5372930282374164,0.8932204842324544,0.8999371335328433,1.001800774133425,0.256227988588352,0.6890417972924778,0.8502051987015194,0.7148029974845312,0.5845851690490274,0.538776821001285,0.5001956702601364,0.7455004047151276,0.6177054301759795,0.3568870007555238,0.3764216083808571,0.4475170246414508,0.1924260101098294,-0.1078527853051886,-0.0547376332062632,-0.0779810888010648,815.934065934066,794.5787545787546,778.8644688644689,809.4871794871796,841.7216117216118,-0.106445,0.067627,0.997559,0.949554,-1.360779,0.508423,421465.201465,86496263.736264,53352014.652015,78.222992,1,1,1,1,1,60.000000
2025-05-02 16:02:55.162,0.5842403143489485,0.9519939505309196,1.132657610602625,0.5556867216105894,0.155153409626741,0.6613250779074518,0.8740956219691409,0.1461754145949927,-0.04475552520982144,0.5711952979205632,0.5838472556917135,0.2032850711516658,0.190301931115416,0.2045127092315994,0.3159644759984124,0.3067815007566586,0.09023131670138888,-0.1622559392200119,-0.1320460747684666,-0.02230220744329507,770.8058608058608,797.3992673992674,777.2527472527473,759.92673992674,694.6520146520147,-0.106995,0.072388,0.994751,0.568237,-1.069183,-0.441132,420659.340659,86555897.435897,53373772.893773,81.333481,1,1,1,1,1,60.000000
2025-05-02 16:02:55.367,,,,,,,,,,,,,,,,,,,,,,,,,,,,,,,,,,,,,,,,,,/muse/elements/blink
2025-05-02 16:02:56.150,0.4299951267969622,1.136823627927975,1.17474834750986,0.4643629027416678,0.1537601529643003,1.028147072698112,0.9860511736571024,0.1545836893607567,-0.1154801106702845,1.032909497987704,0.972859233067716,0.152918605218529,0.2082514963887392,0.2586807441068668,0.2558820191717824,0.2846459699050529,0.09935773566207994,-0.1289704044644539,-0.04850770607055137,-0.04453960838654469,817.5457875457876,780.4761904761905,774.4322344322345,806.2637362637363,531.8681318681319,-0.109375,0.072754,0.988098,0.418701,-0.971985,-0.859833,421465.201465,86687252.747253,53455970.695971,83.103569,1,1,1,1,1,60.000000
2025-05-02 16:02:57.150,0.6538618173952314,1.248992875277342,0.741742579749019,0.7534061899843354,0.2490589781968977,1.129517535968914,0.5322761535648234,0.2553037445126887,0.3802009486983789,1.032909497987704,0.1998548760079053,0.4838982091541486,0.393803203891217,0.3798812897788068,0.09616390472391188,0.2963992648738208,-0.06079803034711725,-0.1042784910816814,-0.412624700897071,-0.1836070625928507,803.040293040293,786.1172161172161,774.8351648351648,794.1758241758242,696.6666666666667,-0.109802,0.072388,0.997864,0.441132,-1.158905,-0.299072,420659.340659,86628424.908425,53390695.970696,82.093407,1,1,1,1,1,55.000000
2025-05-02 16:02:57.807,,,,,,,,,,,,,,,,,,,,,,,,,,,,,,,,,,,,,,,,,,/muse/elements/blink
2025-05-02 16:02:58.151,0.551484647160252,0.8414990221770736,0.6853751197543303,0.6090185868569393,0.07135032602735594,0.6603441684578789,0.2656309620859296,0.2447401568663645,0.2890285729017724,0.2472107444496071,0.1688483039826464,0.4046921059533571,0.2628576947512972,0.1046761480786099,0.05860055844356087,0.3110637428479682,-0.05738417893176001,-0.2744745101737863,-0.3436825036291214,-0.2219060219779826,818.7545787545788,817.948717948718,784.9084249084249,810.6959706959707,894.908424908425,-0.124512,0.067200,0.999268,0.635529,-0.814972,0.209351,421465.201465,86686446.886447,53293992.673993,79.214340,1,1,1,1,1,55.000000
2025-05-02 16:02:59.150,0.4864551923086925,0.8414990221770736,0.7463110565670518,0.5054668771976282,-0.1320499502987196,0.6603441684578789,0.1360625123614723,0.3042239838979179,0.2008766738484794,0.2472107444496071,0.1446491153899389,0.3438295526251322,0.1394445011281084,0.1046761480786099,0.1596982204390403,0.2576495367322589,-0.0617425048596616,-0.2744745101737863,-0.2432133740462868,-0.15943932124976,807.0695970695971,780.8791208791209,781.2820512820513,801.4285714285714,607.2161172161173,-0.131531,0.073181,0.998291,0.328979,-1.248627,-0.710297,421465.201465,86725934.065934,53201318.681319,76.824532,1,1,1,1,1,55.000000
2025-05-02 16:02:59.642,,,,,,,,,,,,,,,,,,,,,,,,,,,,,,,,,,,,,,,,,,/muse/elements/blink
2025-05-02 16:03:00.156,0.4864551923086925,0.9243491674451882,0.7278924165007653,0.7894054685590702,-0.1320499502987196,0.7279991746132418,0.03807006586992358,0.3596928078778561,0.2008766738484794,0.2444819828929912,0.1683222319151402,0.5440684164476144,0.1394445011281084,0.1203014363741976,0.2290495946110283,0.4285331747240667,-0.0617425048596616,-0.2754300496855467,-0.155345484757824,-0.06708385652855134,599.1575091575091,830.4395604395604,817.5457875457876,603.1868131868132,681.3553113553114,-0.133484,0.068115,0.992615,0.239258,-1.136475,0.142059,422271.062271,86847619.047619,53177142.857143,75.760788,1,1,1,1,1,55.000000
2025-05-02 16:03:01.103,,,,,,,,,,,,,,,,,,,,,,,,,,,,,,,,,,,,,,,,,,/muse/elements/blink
2025-05-02 16:03:01.158,0.4864551923086925,0.9243491674451882,0.5688136155032509,0.6800294194487855,-0.1320499502987196,0.7279991746132418,0.2193870000868405,0.3930725228668902,0.2008766738484794,0.2444819828929912,0.1383613017312244,0.5028957906358263,0.1394445011281084,0.1203014363741976,0.02614425452090859,0.4554037396668576,-0.0617425048596616,-0.2754300496855467,-0.1065872200725889,-0.07255770722463185,706.7399267399268,739.7802197802198,774.4322344322345,700.2930402930403,794.981684981685,-0.111145,0.062378,0.999939,0.657959,-1.682281,-0.471039,423076.923077,86849230.769231,53223076.923077,74.520775,1,1,1,1,1,55.000000
2025-05-02 16:03:02.149,0.4864551923086925,0.9243491674451882,0.5688136155032509,0.6800294194487855,-0.1320499502987196,0.7279991746132418,0.2193870000868405,0.3930725228668902,0.2008766738484794,0.2444819828929912,0.1383613017312244,0.5028957906358263,0.1394445011281084,0.1203014363741976,0.02614425452090859,0.4554037396668576,-0.0617425048596616,-0.2754300496855467,-0.1065872200725889,-0.07255770722463185,828.8278388278388,753.4798534798535,742.1978021978023,826.8131868131868,558.0586080586081,-0.118774,0.066772,0.999695,1.091614,-1.697235,0.194397,423076.923077,86708205.128205,53153772.893773,73.790665,1,1,1,1,1,55.000000
2025-05-02 16:03:03.159,0.6953996665464015,1.052105009445345,0.6757536195262628,0.7782966983232383,0.4667818354087079,0.7125722225836191,0.4296332416803391,0.3688399065061034,0.1670562199592137,0.6830625954562558,0.4249882605550411,0.3418620232463395,0.2264090269990432,0.3110263120731731,0.2247314438511412,0.3224352997539751,-0.0305428370044607,0.03828557153029316,-0.3147951290424952,-0.126627514043276,832.4542124542124,754.2857142857143,734.9450549450549,822.3809523809524,737.3626373626374,-0.116333,0.070801,1.005249,0.770111,-0.829926,-0.239258,423076.923077,86626813.186813,53125567.765568,74.423256,1,2,1,1,2,55.000000
2025-05-02 16:03:04.001,,,,,,,,,,,,,,,,,,,,,,,,,,,,,,,,,,,,,,,,,,/muse/elements/blink
2025-05-02 16:03:04.150,0.5604330872454469,0.7508455844521852,0.8563984685074876,0.6486202979872616,0.3917091293646747,0.4376340358459987,0.5107958107075222,0.4130261800736088,0.2559678746805614,0.5037582404840694,0.439480302838903,0.4191191079172576,0.2951925026120273,0.3437576881626726,0.2149641019187277,0.297915224650931,-0.09748894826306068,-0.1337818507554122,-0.3559759647933922,-0.1391537999703806,892.4908424908425,774.0293040293041,718.021978021978,900.1465201465202,665.2380952380953,-0.122375,0.060730,0.992371,0.089722,-1.607513,-1.211243,423076.923077,86356849.816850,53094139.194139,76.252052,1,1,1,1,1,55.000000
2025-05-02 16:03:05.150,0.3420099379979589,1.066481851448439,1.194138632300747,0.4973455328664569,0.3016106372904326,0.8842988760304175,0.843234529768974,0.5455785558048843,0.1157970130916899,0.5686842218087121,0.4784504348277645,0.2209477815248636,0.2915319627322415,0.3654463172797234,0.2970028246173442,0.2675196978122743,-0.08804188377805158,-0.3784381226076636,-0.3043600469301575,-0.1303004863608185,709.1575091575091,750.6593406593407,807.4725274725275,704.7252747252747,680.1465201465202,-0.121460,0.064392,0.995483,1.106567,-1.996307,-0.014954,421465.201465,86269010.989011,53103809.523810,78.300888,1,1,1,1,1,55.000000
2025-05-02 16:03:05.352,,,,,,,,,,,,,,,,,,,,,,,,,,,,,,,,,,,,,,,,,,/muse/elements/blink
2025-05-02 16:03:06.150,0.3420099379979589,1.236390847738099,1.329888114860525,0.4973455328664569,0.3016106372904326,1.137404761582581,1.0296731857303,0.5455785558048843,0.1157970130916899,0.5308366583271419,0.4770656477781283,0.2209477815248636,0.2915319627322415,0.3160493080006424,0.3645745153916117,0.2675196978122743,-0.08804188377805158,-0.3806007708791835,-0.2066577858823586,-0.1303004863608185,805.4578754578755,813.5164835164835,769.1941391941392,792.1611721611722,652.3443223443223,-0.118958,0.067139,0.988586,-0.134583,-2.168274,0.231781,421465.201465,86506739.926740,53256117.216117,79.219193,1,1,1,1,1,55.000000
2025-05-02 16:03:06.334,,,,,,,,,,,,,,,,,,,,,,,,,,,,,,,,,,,,,,,,,,/muse/elements/blink
2025-05-02 16:03:07.152,0.3420099379979589,1.236390847738099,1.291714108291919,0.4973455328664569,0.3016106372904326,1.137404761582581,0.9015489703986677,0.5455785558048843,0.1157970130916899,0.5308366583271419,0.7409177595241137,0.2209477815248636,0.2915319627322415,0.3160493080006424,-0.0372727520571687,0.2675196978122743,-0.08804188377805158,-0.3806007708791835,-0.2082859517040284,-0.1303004863608185,823.992673992674,806.6666666666667,768.7912087912088,822.7838827838829,689.4139194139194,-0.104675,0.073975,0.993958,0.388794,-0.740204,-0.456085,423076.923077,86256923.076923,53177948.717949,80.229340,1,2,1,1,2,55.000000
2025-05-02 16:03:08.150,-0.2495821873060442,0.5190478780967188,1.104237432383596,-0.0004104364596961147,0.2331052734180868,0.1447808323238535,0.7038906877696677,-0.4348926366151362,0.48974496937311,0.4979754610714396,0.7253121270404205,0.08047675675976657,0.3286024467215506,0.1492210599173798,0.1011762232729238,0.3129541283846696,-0.4204769637628977,-0.3318311272651057,-0.3069622472005011,-0.1610377938925999,817.948717948718,792.967032967033,766.3736263736264,813.1135531135532,711.978021978022,-0.107300,0.072571,0.998108,0.351410,-1.181335,0.388794,422271.062271,86298021.978022,53231941.391941,82.036537,1,1,1,1,1,55.000000
2025-05-02 16:03:08.489,,,,,,,,,,,,,,,,,,,,,,,,,,,,,,,,,,,,,,,,,,/muse/elements/blink
2025-05-02 16:03:09.156,-0.08126892991527349,0.8599793898282453,0.5740227358134912,-0.0549526888908678,0.37504032627387,0.6187986689621281,0.2588564090427591,-0.4110181393736199,0.6200818064922237,0.6921732383439217,0.2192922258858883,0.08709123040960026,0.3396611109650494,0.03369658874993868,0.0320401624588576,0.2954359244945495,-0.3134838553948283,-0.475666017149603,-0.2785222205743969,-0.1426007617259809,845.7509157509157,746.2271062271062,842.1245421245421,838.0952380952381,660.8058608058608,-0.119995,0.068237,1.001160,0.224304,-1.121521,0.209351,423076.923077,86588131.868132,53327032.967033,82.745331,1,1,1,1,1,55.000000
2025-05-02 16:03:10.159,0.04853963554948313,0.8620811692796706,0.4751671403671786,-0.07713599746491268,0.5133348440905494,0.8601156168575622,0.3314876058116875,-0.3871953219952019,0.5609377095672569,0.6486774274210438,0.1275282989106897,-0.01108759947688912,0.3736754144183325,0.0641584662179235,-0.1911099866402312,0.2921827865789759,-0.2031605156844791,-0.4789363339176395,-0.2044026355818974,-0.1179120918561675,759.5238095238095,884.0293040293041,906.996336996337,756.3003663003664,689.8168498168499,-0.097046,0.070251,0.996155,0.314026,-1.884155,-1.577606,423076.923077,86821025.641026,53427765.567766,81.214531,1,1,1,1,1,55.000000
2025-05-02 16:03:11.150,0.04853963554948313,0.8620811692796706,0.4751671403671786,-0.07713599746491268,0.5133348440905494,0.8601156168575622,0.3314876058116875,-0.3871953219952019,0.5609377095672569,0.6486774274210438,0.1275282989106897,-0.01108759947688912,0.3736754144183325,0.0641584662179235,-0.1911099866402312,0.2921827865789759,-0.2031605156844791,-0.4789363339176395,-0.2044026355818974,-0.1179120918561675,797.3992673992674,759.5238095238095,737.3626373626374,790.1465201465202,579.8168498168499,-0.101624,0.072266,1.001404,1.061707,-1.637421,0.343933,423076.923077,86895970.695971,53347985.347985,78.832695,1,2,1,1,2,55.000000
2025-05-02 16:03:12.150,0.04853963554948313,0.8620811692796706,0.4751671403671786,-0.07713599746491268,0.5133348440905494,0.8601156168575622,0.3314876058116875,-0.3871953219952019,0.5609377095672569,0.6486774274210438,0.1275282989106897,-0.01108759947688912,0.3736754144183325,0.0641584662179235,-0.1911099866402312,0.2921827865789759,-0.2031605156844791,-0.4789363339176395,-0.2044026355818974,-0.1179120918561675,687.3992673992674,850.5860805860806,722.4542124542124,684.5787545787546,887.2527472527473,-0.099792,0.071472,0.998047,0.680389,-1.465454,-0.254211,424688.644689,87173992.673993,53370549.450549,78.148331,1,2,1,1,2,55.000000
2025-05-02 16:03:13.141,,,,,,,,,,,,,,,,,,,,,,,,,,,,,,,,,,,,,,,,,,/muse/elements/blink
2025-05-02 16:03:13.156,0.04853963554948313,0.8620811692796706,0.4751671403671786,-0.07713599746491268,0.5133348440905494,0.8601156168575622,0.3314876058116875,-0.3871953219952019,0.5609377095672569,0.6486774274210438,0.1275282989106897,-0.01108759947688912,0.3736754144183325,0.0641584662179235,-0.1911099866402312,0.2921827865789759,-0.2031605156844791,-0.4789363339176395,-0.2044026355818974,-0.1179120918561675,875.9706959706959,733.7362637362637,725.6776556776557,882.014652014652,595.1282051282052,-0.101135,0.063110,0.995728,-0.149536,-1.166382,-0.388794,424688.644689,87116776.556777,53312527.472527,77.441521,1,2,1,1,2,55.000000
2025-05-02 16:03:14.151,0.04853963554948313,0.8620811692796706,0.4751671403671786,-0.07713599746491268,0.5133348440905494,0.8601156168575622,0.3314876058116875,-0.3871953219952019,0.5609377095672569,0.6486774274210438,0.1275282989106897,-0.01108759947688912,0.3736754144183325,0.0641584662179235,-0.1911099866402312,0.2921827865789759,-0.2031605156844791,-0.4789363339176395,-0.2044026355818974,-0.1179120918561675,782.4908424908425,882.8205128205128,818.3516483516484,781.2820512820513,646.3003663003664,-0.096985,0.067200,1.001221,0.149536,-1.525269,-2.213135,423882.783883,86749304.029304,53159413.919414,75.645004,1,2,1,1,2,55.000000
2025-05-02 16:03:15.150,0.04853963554948313,0.8620811692796706,0.4751671403671786,-0.07713599746491268,0.5133348440905494,0.8601156168575622,0.3314876058116875,-0.3871953219952019,0.5609377095672569,0.6486774274210438,0.1275282989106897,-0.01108759947688912,0.3736754144183325,0.0641584662179235,-0.1911099866402312,0.2921827865789759,-0.2031605156844791,-0.4789363339176395,-0.2044026355818974,-0.1179120918561675,866.3003663003664,793.7728937728938,739.3772893772893,853.8095238095239,665.2380952380953,-0.095947,0.068848,0.999329,0.732727,-2.385101,0.538330,423882.783883,86447106.227106,53111062.271062,75.228188,1,2,1,1,2,55.000000
2025-05-02 16:03:15.704,,,,,,,,,,,,,,,,,,,,,,,,,,,,,,,,,,,,,,,,,,/muse/elements/blink
2025-05-02 16:03:16.149,0.04853963554948313,0.8620811692796706,0.4751671403671786,-0.07713599746491268,0.5133348440905494,0.8601156168575622,0.3314876058116875,-0.3871953219952019,0.5609377095672569,0.6486774274210438,0.1275282989106897,-0.01108759947688912,0.3736754144183325,0.0641584662179235,-0.1911099866402312,0.2921827865789759,-0.2031605156844791,-0.4789363339176395,-0.2044026355818974,-0.1179120918561675,666.0439560439561,813.919413919414,833.2600732600733,663.2234432234433,627.7655677655678,-0.093445,0.073975,1.005981,0.874786,-1.682281,0.201874,423882.783883,86474505.494505,53221465.201465,75.984329,1,2,1,1,2,55.000000
2025-05-02 16:03:17.149,0.04853963554948313,0.8620811692796706,0.4751671403671786,-0.07713599746491268,0.5133348440905494,0.8601156168575622,0.3314876058116875,-0.3871953219952019,0.5609377095672569,0.6486774274210438,0.1275282989106897,-0.01108759947688912,0.3736754144183325,0.0641584662179235,-0.1911099866402312,0.2921827865789759,-0.2031605156844791,-0.4789363339176395,-0.2044026355818974,-0.1179120918561675,736.959706959707,749.4505494505495,709.5604395604396,736.959706959707,780.0732600732601,-0.090881,0.072449,0.991821,-0.179443,-2.093506,-0.859833,423882.783883,86368937.728938,53290769.230769,76.755943,1,2,1,1,2,55.000000
2025-05-02 16:03:18.160,0.04853963554948313,0.8620811692796706,0.4751671403671786,-0.07713599746491268,0.5133348440905494,0.8601156168575622,0.3314876058116875,-0.3871953219952019,0.5609377095672569,0.6486774274210438,0.1275282989106897,-0.01108759947688912,0.3736754144183325,0.0641584662179235,-0.1911099866402312,0.2921827865789759,-0.2031605156844791,-0.4789363339176395,-0.2044026355818974,-0.1179120918561675,885.2380952380953,749.8534798534798,738.1684981684982,882.8205128205128,646.3003663003664,-0.088501,0.070984,1.000732,0.672913,-2.213135,-0.343933,424688.644689,86222271.062271,53339926.739927,77.639030,1,2,1,1,2,55.000000
2025-05-02 16:03:19.149,0.04853963554948313,0.8620811692796706,0.4751671403671786,-0.07713599746491268,0.5133348440905494,0.8601156168575622,0.3314876058116875,-0.3871953219952019,0.5609377095672569,0.6486774274210438,0.1275282989106897,-0.01108759947688912,0.3736754144183325,0.0641584662179235,-0.1911099866402312,0.2921827865789759,-0.2031605156844791,-0.4789363339176395,-0.2044026355818974,-0.1179120918561675,652.7472527472528,912.6373626373627,865.8974358974359,648.7179487179487,644.2857142857143,-0.084595,0.072815,1.002625,0.725250,-1.667328,-0.067291,423882.783883,86335897.435897,53469670.329670,79.286011,1,2,1,1,2,55.000000
2025-05-02 16:03:19.471,,,,,,,,,,,,,,,,,,,,,,,,,,,,,,,,,,,,,,,,,,/muse/elements/blink
2025-05-02 16:03:20.150,0.04853963554948313,0.8620811692796706,0.4751671403671786,-0.07713599746491268,0.5133348440905494,0.8601156168575622,0.3314876058116875,-0.3871953219952019,0.5609377095672569,0.6486774274210438,0.1275282989106897,-0.01108759947688912,0.3736754144183325,0.0641584662179235,-0.1911099866402312,0.2921827865789759,-0.2031605156844791,-0.4789363339176395,-0.2044026355818974,-0.1179120918561675,763.956043956044,892.0879120879121,751.4652014652015,759.5238095238095,880.8058608058608,-0.090454,0.068787,0.995850,-0.089722,-1.682281,0.590668,424688.644689,86360073.260073,53579267.399267,79.811073,1,2,1,1,2,55.000000
2025-05-02 16:03:21.154,0.04853963554948313,0.8620811692796706,0.4751671403671786,-0.07713599746491268,0.5133348440905494,0.8601156168575622,0.3314876058116875,-0.3871953219952019,0.5609377095672569,0.6486774274210438,0.1275282989106897,-0.01108759947688912,0.3736754144183325,0.0641584662179235,-0.1911099866402312,0.2921827865789759,-0.2031605156844791,-0.4789363339176395,-0.2044026355818974,-0.1179120918561675,882.8205128205128,723.6630036630037,734.5421245421246,891.2820512820513,720.0366300366301,-0.086731,0.072632,1.000427,0.807495,-1.973877,-0.164490,424688.644689,86264981.684982,53627619.047619,79.280609,1,2,1,1,2,55.000000
2025-05-02 16:03:22.155,0.04853963554948313,0.8620811692796706,0.4751671403671786,-0.07713599746491268,0.5133348440905494,0.8601156168575622,0.3314876058116875,-0.3871953219952019,0.5609377095672569,0.6486774274210438,0.1275282989106897,-0.01108759947688912,0.3736754144183325,0.0641584662179235,-0.1911099866402312,0.2921827865789759,-0.2031605156844791,-0.4789363339176395,-0.2044026355818974,-0.1179120918561675,867.1062271062272,711.5750915750916,744.6153846153846,875.5677655677656,532.6739926739926,-0.104370,0.062561,1.001648,-0.127106,-0.792542,-0.201874,425494.505495,86389084.249084,53738021.978022,79.160965,1,2,1,1,2,55.000000
2025-05-02 16:03:22.187,,,,,,,,,,,,,,,,,,,,,,,,,,,,,,,,,,,,,,,,,,/muse/elements/blink
2025-05-02 16:03:23.149,0.04853963554948313,0.8620811692796706,0.4751671403671786,-0.07713599746491268,0.5133348440905494,0.8601156168575622,0.3314876058116875,-0.3871953219952019,0.5609377095672569,0.6486774274210438,0.1275282989106897,-0.01108759947688912,0.3736754144183325,0.0641584662179235,-0.1911099866402312,0.2921827865789759,-0.2031605156844791,-0.4789363339176395,-0.2044026355818974,-0.1179120918561675,857.032967032967,734.5421245421246,770.4029304029305,850.989010989011,689.4139194139194,-0.093018,0.068970,0.995300,0.216827,-1.779480,-1.525269,424688.644689,86409230.769231,53757362.637363,79.554756,1,2,1,1,2,55.000000
2025-05-02 16:03:24.150,0.6675061322563256,0.5693080266860019,0.8034334352165464,0.7477504304657484,0.3751785566325039,0.1551129026261795,0.3282767841709209,0.2510590966927199,0.6581935545396703,0.6331673031334194,0.5439198729703482,0.4456306322664521,0.4441971084432635,0.2830106167496338,0.4837415823930581,0.4433944828989201,-0.07885410558096007,-0.1131009679886772,-0.3435140359790655,-0.2029826112090607,834.8717948717949,761.1355311355312,785.3113553113553,834.8717948717949,867.5091575091575,-0.086426,0.070862,0.997437,0.493469,-2.609406,-0.254211,425494.505495,86393113.553114,53726739.926740,80.226303,1,1,1,1,1,55.000000
2025-05-02 16:03:24.630,,,,,,,,,,,,,,,,,,,,,,,,,,,,,,,,,,,,,,,,,,/muse/elements/blink
2025-05-02 16:03:25.150,0.6052219340379092,0.51626966719432,0.747379552910874,0.6095559627790038,0.1473354322987179,0.1926184438878212,0.4552234916297589,0.178403072614757,0.4856397328327832,0.6169980905528031,0.474804075631818,0.302376143633506,0.3456569979891414,0.4199846956790167,0.3987543616491926,0.4859403658562854,0.03836568811356298,-0.1105286258425343,-0.3496179206200669,-0.1749438250204551,832.8571428571429,800.6227106227107,789.3406593406594,839.3040293040293,664.0293040293041,-0.084778,0.067139,0.999573,0.463562,-1.173859,-1.039276,425494.505495,86405201.465201,53729157.509158,81.517868,1,1,1,1,1,55.000000
2025-05-02 16:03:26.150,0.3056460424646358,0.8541098279901465,0.8425143799237704,0.4094248175757347,-0.1491353014736281,0.8063174005508962,0.5477131274251448,-0.05917404434830133,0.3516945062708008,0.6725799043830412,0.5470536787936342,0.05128276182169345,0.3226126244727184,0.282157988096754,0.163318296544385,0.4975686223495336,0.1238048645440537,-0.1288818193020642,-0.3211238365922445,-0.02694541769922397,840.1098901098901,796.1904761904763,793.3699633699634,820.7692307692308,757.9120879120879,-0.085327,0.066528,0.994324,1.151428,-2.235565,0.186920,425494.505495,86428571.428571,53693699.633700,80.991783,1,1,1,1,1,55.000000
2025-05-02 16:03:27.150,1.184204200169991,0.9916559272777185,1.005523109233841,0.4094248175757347,0.1729544977318572,0.6407360871921246,0.2689796952514467,-0.05917404434830133,0.3396259976451103,0.7877778317982085,0.4594754241957021,0.05128276182169345,0.2761060403734394,0.2600543229036654,0.09913218667911596,0.4975686223495336,-0.2335836010637886,-0.1538880944361583,-0.2599539206721819,-0.02694541769922397,669.6703296703297,750.2564102564103,917.8754578754579,670.8791208791209,657.985347985348,-0.091003,0.067505,1.009277,0.239258,-1.659851,-2.100983,424688.644689,86227106.227106,53604249.084249,77.849068,1,1,1,1,1,55.000000
2025-05-02 16:03:27.373,,,,,,,,,,,,,,,,,,,,,,,,,,,,,,,,,,,,,,,,,,/muse/elements/blink
2025-05-02 16:03:28.150,1.289994647913234,1.172713531215775,0.7920470619999844,0.4094248175757347,0.1864388790182846,0.6875300636482983,-0.296617269998653,-0.05917404434830133,0.3318300155194898,0.761233091295647,0.07677068214891591,0.05128276182169345,0.2705165044828577,0.3811203178473854,0.07102347714286616,0.4975686223495336,-0.2651558575339028,-0.1821842404757121,-0.3326129493251216,-0.02694541769922397,749.047619047619,776.0439560439561,798.6080586080586,753.4798534798535,589.0842490842491,-0.096619,0.069946,0.997864,1.084137,-1.921539,0.186920,424688.644689,86136043.956044,53591355.311355,76.252579,1,1,1,1,1,55.000000
2025-05-02 16:03:28.899,,,,,,,,,,,,,,,,,,,,,,,,,,,,,,,,,,,,,,,,,,/muse/elements/blink
2025-05-02 16:03:29.156,1.289994647913234,1.227786409026734,0.7920470619999844,0.4094248175757347,0.1864388790182846,0.3074778752877895,-0.296617269998653,-0.05917404434830133,0.3318300155194898,0.4263736096839488,0.07677068214891591,0.05128276182169345,0.2705165044828577,0.3773652569563661,0.07102347714286616,0.4975686223495336,-0.2651558575339028,-0.08927918456320831,-0.3326129493251216,-0.02694541769922397,831.2454212454213,780.8791208791209,775.6410256410256,831.6483516483516,680.1465201465202,-0.137939,0.070190,0.998047,1.801910,-0.007477,0.822449,425494.505495,86276263.736264,53677582.417582,76.348770,1,1,1,1,1,55.000000
2025-05-02 16:03:30.156,1.289994647913234,0.9607767988806363,0.5229504509516409,0.4094248175757347,0.1864388790182846,0.371896233531968,0.4541163316114543,-0.05917404434830133,0.3318300155194898,0.575595286678384,0.3369595715088376,0.05128276182169345,0.2705165044828577,0.3498797984976848,0.3155420732040637,0.4975686223495336,-0.2651558575339028,-0.02332835082596568,-0.02050898681385744,-0.02694541769922397,822.7838827838829,797.8021978021978,779.6703296703297,817.5457875457876,637.8388278388279,-0.136536,0.079956,0.995789,0.149536,-0.463562,-0.194397,423882.783883,86235970.695971,53628424.908425,75.674995,1,2,1,1,2,55.000000
2025-05-02 16:03:31.149,0.2983279199470902,0.25149955518946,0.6014238464365915,-0.06917336931223628,0.3039717850312004,0.1023648759167287,0.3662769076198188,0.01981861104602788,0.3551686546158263,0.613808881265245,0.375525080905013,0.3031202528002784,0.3869366646893503,0.1928783021151576,0.1792999535667428,0.3498646844908444,-0.09153829138655525,-0.103422044063416,-0.1806312562893298,-0.1433832974741615,829.6336996336996,802.6373626373627,805.0549450549451,820.7692307692308,719.2307692307693,-0.156067,0.088806,0.990051,0.493469,-1.592560,-0.530853,423882.783883,86115897.435897,53601831.501832,76.086082,1,1,1,1,1,55.000000
2025-05-02 16:03:32.149,0.2904415850600793,0.273859977267027,0.7985782863784139,0.2929605532562694,0.3068160474612494,-0.168076044710721,0.164882067558753,0.1575510386655369,0.4683058262009459,0.3433540767336728,0.4508884802373828,0.5159736503500755,0.3550996399928165,0.1305229678601819,0.05306309052938638,0.26331725733141,-0.09058519480024065,-0.2107756295194462,-0.174799456895288,-0.188678412860444,816.3369963369963,803.8461538461539,805.4578754578755,815.5311355311355,617.2893772893773,-0.145630,0.065857,0.986267,-0.852356,-1.592560,-0.717773,423882.783883,86066739.926740,53537362.637363,78.487930,1,1,1,1,1,55.000000
2025-05-02 16:03:32.775,,,,,,,,,,,,,,,,,,,,,,,,,,,,,,,,,,,,,,,,,,/muse/elements/blink
2025-05-02 16:03:33.157,0.2770976516443984,0.7012256287013394,0.5988038152865118,0.13976115814212,0.3301528869451824,0.384412820740394,0.2787410440711704,0.4148982197648418,0.1749712794532679,0.3618342269946881,0.4832333650976229,0.6024672989278202,0.2787202491295044,0.1897563554736211,0.05966074263279404,0.194278701242775,-0.1440184010527809,-0.3673351557821815,-0.242324178479012,-0.1744175435430705,828.4249084249085,798.2051282051282,803.8461538461539,830.0366300366301,784.5054945054945,-0.185120,0.083740,0.982605,-0.022430,-0.097198,-0.037384,423076.923077,85918461.538462,53517216.117216,81.754982,1,1,1,1,1,55.000000
2025-05-02 16:03:34.156,0.1469977461545356,1.026117616852441,0.8091467057372314,0.06869920210991703,0.4410391731642157,0.3964355515362391,0.469546640415089,0.4839032090739402,0.1749712794532679,0.16097233783531,0.2847512771226176,0.6016418171456006,0.1790812496132039,0.2885592320911675,0.2036237170990965,0.1779339394063422,-0.02593627033250268,-0.2036469901351035,-0.08100174465070173,-0.277745772541137,752.6739926739926,706.7399267399268,808.2783882783883,751.4652014652015,541.1355311355311,-0.155273,0.069458,0.994080,0.074768,-1.742096,1.293488,423882.783883,85924102.564103,53568791.208791,84.751457,1,1,1,1,1,55.000000
2025-05-02 16:03:35.165,0.1469977461545356,1.067148668582768,0.9910806859813326,0.06869920210991703,0.4410391731642157,0.4451676603736581,0.5790790142295111,0.4839032090739402,0.1749712794532679,0.0846876493074335,0.07816054718676577,0.6016418171456006,0.1790812496132039,0.3188111285288214,0.2888322089441487,0.1779339394063422,-0.02593627033250268,-0.1729506170074448,0.1073454950560566,-0.277745772541137,667.2527472527473,838.4981684981685,812.3076923076924,672.4908424908425,647.9120879120879,-0.170898,0.082153,0.986938,1.271057,-2.145844,0.284119,423076.923077,86318168.498168,53691282.051282,85.716316,1,1,1,1,1,55.000000
2025-05-02 16:03:35.583,,,,,,,,,,,,,,,,,,,,,,,,,,,,,,,,,,,,,,,,,,/muse/elements/blink
2025-05-02 16:03:35.821,,,,,,,,,,,,,,,,,,,,,,,,,,,,,,,,,,,,,,,,,,/muse/elements/blink
2025-05-02 16:03:36.162,0.1469977461545356,1.067148668582768,0.9910806859813326,0.06869920210991703,0.4410391731642157,0.4451676603736581,0.5790790142295111,0.4839032090739402,0.1749712794532679,0.0846876493074335,0.07816054718676577,0.6016418171456006,0.1790812496132039,0.3188111285288214,0.2888322089441487,0.1779339394063422,-0.02593627033250268,-0.1729506170074448,0.1073454950560566,-0.277745772541137,735.3479853479854,812.7106227106227,762.7472527472528,762.3443223443223,927.5457875457876,-0.166138,0.076721,0.988892,0.650482,-1.398163,0.478516,423882.783883,86389890.109890,53684835.164835,82.392349,1,2,1,1,2,55.000000
2025-05-02 16:03:37.150,0.1469977461545356,1.067148668582768,0.9910806859813326,0.06869920210991703,0.4410391731642157,0.4451676603736581,0.5790790142295111,0.4839032090739402,0.1749712794532679,0.0846876493074335,0.07816054718676577,0.6016418171456006,0.1790812496132039,0.3188111285288214,0.2888322089441487,0.1779339394063422,-0.02593627033250268,-0.1729506170074448,0.1073454950560566,-0.277745772541137,574.5787545787546,1029.89010989011,790.952380952381,573.7728937728938,562.4908424908425,-0.158997,0.082214,0.990906,0.785065,-2.265472,-0.164490,423882.783883,86352014.652015,53680000.000000,78.095673,1,2,1,1,2,55.000000
2025-05-02 16:03:37.740,,,,,,,,,,,,,,,,,,,,,,,,,,,,,,,,,,,,,,,,,,/muse/elements/blink
2025-05-02 16:03:38.150,0.1469977461545356,1.067148668582768,0.9910806859813326,0.06869920210991703,0.4410391731642157,0.4451676603736581,0.5790790142295111,0.4839032090739402,0.1749712794532679,0.0846876493074335,0.07816054718676577,0.6016418171456006,0.1790812496132039,0.3188111285288214,0.2888322089441487,0.1779339394063422,-0.02593627033250268,-0.1729506170074448,0.1073454950560566,-0.277745772541137,749.047619047619,750.2564102564103,749.8534798534798,756.3003663003664,790.1465201465202,-0.154480,0.077942,0.994629,0.545807,-2.041168,0.246735,423882.783883,86318974.358974,53657435.897436,74.547699,1,2,1,1,2,55.000000
2025-05-02 16:03:38.434,,,,,,,,,,,,,,,,,,,,,,,,,,,,,,,,,,,,,,,,,,/muse/elements/blink
2025-05-02 16:03:39.158,0.1469977461545356,1.067148668582768,0.9910806859813326,0.06869920210991703,0.4410391731642157,0.4451676603736581,0.5790790142295111,0.4839032090739402,0.1749712794532679,0.0846876493074335,0.07816054718676577,0.6016418171456006,0.1790812496132039,0.3188111285288214,0.2888322089441487,0.1779339394063422,-0.02593627033250268,-0.1729506170074448,0.1073454950560566,-0.277745772541137,834.8717948717949,767.985347985348,716.007326007326,836.0805860805862,676.5201465201466,-0.150940,0.078003,0.990967,0.530853,-1.592560,0.067291,423076.923077,86179560.439560,53627619.047619,72.541794,1,2,1,1,2,55.000000
2025-05-02 16:03:40.158,0.1469977461545356,1.067148668582768,0.9910806859813326,0.06869920210991703,0.4410391731642157,0.4451676603736581,0.5790790142295111,0.4839032090739402,0.1749712794532679,0.0846876493074335,0.07816054718676577,0.6016418171456006,0.1790812496132039,0.3188111285288214,0.2888322089441487,0.1779339394063422,-0.02593627033250268,-0.1729506170074448,0.1073454950560566,-0.277745772541137,860.6593406593407,757.1062271062272,719.2307692307693,842.9304029304029,567.7289377289377,-0.164734,0.075562,0.986816,-0.515900,-1.054230,0.351410,423076.923077,86001465.201465,53598608.058608,72.437798,1,2,1,1,2,55.000000
2025-05-02 16:03:41.150,1.155290741689921,0.7024169780696098,0.533646708090419,1.088828380292415,1.266384071097537,0.5571249474178064,0.4243007882233478,0.8769695054760822,1.07278285127369,0.3575404072538097,0.4366105424630942,1.182227751569594,0.5633804525725686,0.3593160021329532,0.2513706037425499,0.5522623556257003,0.4913339372001226,-0.1391445012589996,-0.3416498217082959,0.4511400663445314,855.8241758241759,788.5347985347986,783.2967032967033,858.6446886446887,1323.626373626374,-0.179810,0.078857,0.985596,0.732727,-1.674805,0.500946,423076.923077,85788717.948718,53632454.212454,73.777130,1,1,1,1,1,55.000000
2025-05-02 16:03:42.156,1.160827793038729,0.6642203357583275,0.6724553697056107,0.8143574171608327,1.185075296745111,0.5194908435302554,0.4076711756954284,0.7069783901944229,1.137311470269057,0.1892871969708981,0.3331780938201889,0.6092005906121986,0.5606021584724605,0.2637962268767624,0.09897786721586585,0.4146431420992467,0.3502359993204549,-0.0903451554102828,-0.400614343407433,-0.09551503091337464,999.2673992673992,842.5274725274726,863.8827838827839,1000.47619047619,745.0183150183151,-0.162781,0.076233,0.993774,0.373840,-0.000000,-1.951447,422271.062271,85758901.098901,53663882.783883,76.187424,1,1,1,1,1,55.000000
2025-05-02 16:03:42.188,,,,,,,,,,,,,,,,,,,,,,,,,,,,,,,,,,,,,,,,,,/muse/elements/blink
2025-05-02 16:03:43.156,1.12082766165613,0.6642203357583275,0.6724553697056107,0.8414932950523999,0.6996680877836055,0.5194908435302554,0.4076711756954284,0.7610959997496323,0.7720023812691323,0.1892871969708981,0.3331780938201889,0.5486766321406317,0.530462460272378,0.2637962268767624,0.09897786721586585,0.4043382287123175,0.05206973565958157,-0.0903451554102828,-0.400614343407433,-0.1163707581419529,800.6227106227107,722.0512820512821,866.7032967032967,823.1868131868132,584.2490842490843,-0.152527,0.073914,0.987061,0.052338,-1.846771,-0.994415,421465.201465,85895897.435897,53762197.802198,80.208565,1,1,1,1,1,55.000000
2025-05-02 16:03:43.232,,,,,,,,,,,,,,,,,,,,,,,,,,,,,,,,,,,,,,,,,,/muse/elements/blink
2025-05-02 16:03:44.149,1.12082766165613,0.6642203357583275,0.6724553697056107,0.8414932950523999,0.6996680877836055,0.5194908435302554,0.4076711756954284,0.7610959997496323,0.7720023812691323,0.1892871969708981,0.3331780938201889,0.5486766321406317,0.530462460272378,0.2637962268767624,0.09897786721586585,0.4043382287123175,0.05206973565958157,-0.0903451554102828,-0.400614343407433,-0.1163707581419529,947.2893772893773,811.0989010989011,836.0805860805862,942.8571428571429,758.3150183150184,-0.145508,0.077271,0.994751,0.889740,-1.114044,-0.149536,421465.201465,85914432.234432,53801684.981685,86.255272,1,1,1,1,1,55.000000
2025-05-02 16:03:44.970,,,,,,,,,,,,,,,,,,,,,,,,,,,,,,,,,,,,,,,,,,/muse/elements/blink
2025-05-02 16:03:45.157,1.12082766165613,0.6642203357583275,0.6724553697056107,0.8414932950523999,0.6996680877836055,0.5194908435302554,0.4076711756954284,0.7610959997496323,0.7720023812691323,0.1892871969708981,0.3331780938201889,0.5486766321406317,0.530462460272378,0.2637962268767624,0.09897786721586585,0.4043382287123175,0.05206973565958157,-0.0903451554102828,-0.400614343407433,-0.1163707581419529,666.4468864468864,686.5934065934066,765.1648351648352,680.5494505494506,696.2637362637363,-0.152832,0.071777,0.996765,-0.127106,-1.921539,-0.725250,423076.923077,86152161.172161,53943516.483516,90.786140,1,2,1,1,2,55.000000
2025-05-02 16:03:46.154,1.12082766165613,0.6642203357583275,0.6724553697056107,0.8414932950523999,0.6996680877836055,0.5194908435302554,0.4076711756954284,0.7610959997496323,0.7720023812691323,0.1892871969708981,0.3331780938201889,0.5486766321406317,0.530462460272378,0.2637962268767624,0.09897786721586585,0.4043382287123175,0.05206973565958157,-0.0903451554102828,-0.400614343407433,-0.1163707581419529,769.1941391941392,798.6080586080586,725.2747252747253,761.941391941392,604.3956043956044,-0.145996,0.067932,0.989746,0.785065,-0.942078,1.001892,423076.923077,86024835.164835,53908058.608059,92.085114,1,2,1,1,2,55.000000
2025-05-02 16:03:46.274,,,,,,,,,,,,,,,,,,,,,,,,,,,,,,,,,,,,,,,,,,/muse/elements/blink
2025-05-02 16:03:47.157,1.12082766165613,0.6642203357583275,0.6724553697056107,0.8414932950523999,0.6996680877836055,0.5194908435302554,0.4076711756954284,0.7610959997496323,0.7720023812691323,0.1892871969708981,0.3331780938201889,0.5486766321406317,0.530462460272378,0.2637962268767624,0.09897786721586585,0.4043382287123175,0.05206973565958157,-0.0903451554102828,-0.400614343407433,-0.1163707581419529,818.3516483516484,761.1355311355312,755.4945054945055,819.1575091575091,630.5860805860806,-0.136108,0.078186,0.988770,0.231781,-2.190704,0.934601,422271.062271,86200512.820513,53971721.611722,92.300880,1,2,1,1,2,55.000000
2025-05-02 16:03:48.108,,,,,,,,,,,,,,,,,,,,,,,,,,,,,,,,,,,,,,,,,,/muse/elements/blink
2025-05-02 16:03:48.153,1.12082766165613,0.6642203357583275,0.6724553697056107,0.8414932950523999,0.6996680877836055,0.5194908435302554,0.4076711756954284,0.7610959997496323,0.7720023812691323,0.1892871969708981,0.3331780938201889,0.5486766321406317,0.530462460272378,0.2637962268767624,0.09897786721586585,0.4043382287123175,0.05206973565958157,-0.0903451554102828,-0.400614343407433,-0.1163707581419529,866.7032967032967,759.1208791208792,740.989010989011,852.1978021978023,709.9633699633699,-0.142456,0.074646,0.991333,0.934601,-2.317810,0.112152,423076.923077,85995018.315018,53880659.340659,92.093155,1,2,1,1,2,55.000000
2025-05-02 16:03:49.154,1.12082766165613,0.6642203357583275,0.9555192776529499,0.8414932950523999,0.6996680877836055,0.5194908435302554,0.5261510433644339,0.7610959997496323,0.7720023812691323,0.1892871969708981,0.4151711744087515,0.5486766321406317,0.530462460272378,0.2637962268767624,0.08693605120843369,0.4043382287123175,0.05206973565958157,-0.0903451554102828,-0.1916598007339152,-0.1163707581419529,823.5897435897436,800.6227106227107,792.1611721611722,823.992673992674,552.8205128205128,-0.127808,0.070435,1.005188,0.381317,-1.929016,-2.026215,421465.201465,85715384.615385,53732380.952381,93.025925,1,2,1,1,2,55.000000
2025-05-02 16:03:50.160,1.12082766165613,1.255870763850252,0.9497461654895523,0.8414932950523999,0.6996680877836055,0.3811176460418078,0.2552978510826846,0.7610959997496323,0.7720023812691323,0.4250087762966988,0.2826127420966362,0.5486766321406317,0.530462460272378,0.2043932379501032,0.1401422038946945,0.4043382287123175,0.05206973565958157,-0.2122258802448967,-0.1778050713412768,-0.1163707581419529,708.3516483516484,780.4761904761905,874.3589743589744,706.7399267399268,830.8424908424909,-0.119568,0.075012,0.999023,1.121521,-1.181335,0.732727,421465.201465,85632380.952381,53696117.216117,94.467934,1,2,1,1,2,55.000000
2025-05-02 16:03:50.299,,,,,,,,,,,,,,,,,,,,,,,,,,,,,,,,,,,,,,,,,,/muse/elements/blink
2025-05-02 16:03:51.165,1.12082766165613,1.289793257291105,0.9960658502404618,0.8414932950523999,0.6996680877836055,0.8043230577232228,0.2503037480831966,0.7610959997496323,0.7720023812691323,0.3397649273056403,0.2391016498956918,0.5486766321406317,0.530462460272378,0.3798024897679877,0.1688618508493891,0.4043382287123175,0.05206973565958157,-0.2363434338167152,-0.1858326739878368,-0.1163707581419529,748.2417582417582,796.996336996337,743.0036630036631,750.6593406593407,655.5677655677656,-0.114502,0.076599,0.986755,0.859833,-1.600037,-0.680389,422271.062271,85479267.399267,53757362.637363,95.767723,1,2,1,1,2,55.000000
2025-05-02 16:03:51.847,,,,,,,,,,,,,,,,,,,,,,,,,,,,,,,,,,,,,,,,,,/muse/elements/blink
2025-05-02 16:03:52.157,1.12082766165613,0.9464206706379227,0.9960658502404618,0.8414932950523999,0.6996680877836055,0.6286499099013449,0.2503037480831966,0.7610959997496323,0.7720023812691323,0.553897069346049,0.2391016498956918,0.5486766321406317,0.530462460272378,0.3095270193226985,0.1688618508493891,0.4043382287123175,0.05206973565958157,0.05248258401752644,-0.1858326739878368,-0.1163707581419529,806.2637362637363,778.0586080586081,735.7509157509157,812.7106227106227,626.5567765567765,-0.114075,0.084900,0.997681,0.426178,-1.884155,-0.411224,421465.201465,85495384.615385,53790402.930403,94.872292,1,2,1,1,2,55.000000
2025-05-02 16:03:53.158,1.12082766165613,0.8020851657386865,1.048507975824005,0.8414932950523999,0.6996680877836055,0.1390457561018611,0.298959458986405,0.7610959997496323,0.7720023812691323,0.444642303650482,0.4126744927750934,0.5486766321406317,0.530462460272378,0.2286393112930472,0.1840228710456305,0.4043382287123175,0.05206973565958157,-0.05841189236833723,-0.314087683805889,-0.1163707581419529,826.8131868131868,788.1318681318681,771.2087912087912,828.4249084249085,652.7472527472528,-0.099609,0.084961,0.993896,0.403748,-2.504730,0.747681,422271.062271,85571941.391941,53814578.754579,92.936623,1,2,1,1,2,55.000000
2025-05-02 16:03:54.159,0.3090941245030492,-0.03668996255360005,0.769063554400114,0.729925028396909,0.4291962380944856,-0.181895081554023,0.05834367518605452,0.3148521257914081,0.6908819102140895,0.2536079609903901,0.3117801502848568,0.5641764613836392,0.2048308820848979,0.171557385349993,0.08439943077332626,0.3733901465226951,-0.1739465796927646,-0.202355122061366,-0.2095639167877734,-0.1236133013729445,809.8901098901099,798.2051282051282,799.4139194139194,813.1135531135532,597.1428571428571,-0.116333,0.077942,0.994141,0.792542,-1.390686,0.396271,421465.201465,85467179.487179,53765421.245421,91.039551,1,1,1,1,1,55.000000
2025-05-02 16:03:55.162,0.4341093150004021,0.01657694272143439,0.7717344181268225,0.3187706030246384,0.3738082579620372,0.02084868715111005,0.1416962432504954,0.1158686169053572,0.500479066929989,0.385103916010552,0.263054250105666,0.3510039754537095,0.1590294289358976,0.069982112877196,0.05084068371050876,0.217432778130393,-0.3367160538712803,-0.2686150149633915,-0.2861470419203587,-0.2383524229986835,824.7985347985348,792.5641025641025,797.8021978021978,820.7692307692308,618.901098901099,-0.108643,0.079468,0.991455,0.231781,-0.994415,0.538330,422271.062271,85675091.575092,53787985.347985,88.410225,1,1,1,1,1,55.000000
2025-05-02 16:03:56.160,0.7328196853382527,0.4949401230757127,0.4317355734189959,0.6087486554288456,0.1212732531561193,-0.2344684045615179,0.1216306407327246,0.07832729418381759,0.505566645958232,0.3576759524480426,0.3630720941290965,0.2451250856972695,0.1268120098578719,0.07129671238866973,-0.1532751891099961,0.04654261679343686,-0.2886431417382954,-0.5610535384690786,-0.3985393750624654,-0.3072610161397297,861.4652014652015,826.8131868131868,828.021978021978,857.032967032967,640.2564102564103,-0.122131,0.072815,0.994873,1.383209,-1.846771,-0.605621,423076.923077,85883809.523810,53841172.161172,85.050468,1,1,1,1,1,55.000000
2025-05-02 16:03:57.144,,,,,,,,,,,,,,,,,,,,,,,,,,,,,,,,,,,,,,,,,,/muse/elements/blink
2025-05-02 16:03:57.161,0.9489171695119444,0.7135214562709615,0.6753189366454588,0.9018251861416186,0.1430525185724219,-0.09819744870711734,0.4260579930752672,0.06607495532661979,0.476335088839283,0.1681730850854514,0.2782753679938365,0.2365045157522541,0.2442081977473781,-0.03547810917094148,-0.1385635018246449,0.02657378997737559,-0.108125178342671,-0.6105041840713771,-0.2584928734754223,-0.2287693439773216,797.3992673992674,791.7582417582418,812.7106227106227,790.1465201465202,681.3553113553114,-0.113892,0.072510,0.994141,-0.014954,-1.405640,0.478516,421465.201465,85633186.813187,53699340.659341,81.050133,1,1,1,1,1,55.000000
2025-05-02 16:03:58.162,0.9615397337566268,1.27944271065622,1.13064314691044,0.9018251861416186,0.1683135272132883,0.6456817100758581,0.7358140161880022,0.06607495532661979,0.4627490102678854,0.873446357460111,0.4941276712138137,0.2365045157522541,0.2435381051925709,0.354741326407384,0.1441333064883532,0.02657378997737559,-0.05148972140650904,-0.1616910263397985,-0.2725462356916505,-0.2287693439773216,668.8644688644689,772.4175824175825,816.7399267399268,678.1318681318681,641.0622710622711,-0.106262,0.076172,0.995178,0.530853,-1.360779,-0.433655,421465.201465,85721025.641026,53639706.959707,80.813499,1,1,1,1,1,55.000000
2025-05-02 16:03:59.163,0.9615397337566268,1.27944271065622,1.056699105952565,0.9018251861416186,0.1683135272132883,0.6456817100758581,0.5799226159595091,0.06607495532661979,0.4627490102678854,0.873446357460111,0.4496967100717293,0.2365045157522541,0.2435381051925709,0.354741326407384,0.1265731891051202,0.02657378997737559,-0.05148972140650904,-0.1616910263397985,-0.2431263376321538,-0.2287693439773216,740.1831501831502,780.0732600732601,780.0732600732601,732.9304029304029,671.2820512820513,-0.104736,0.077393,1.006836,0.433655,-1.428070,0.560760,421465.201465,85982124.542125,53755750.915751,81.128746,1,2,1,1,2,55.000000
2025-05-02 16:04:00.163,0.9615397337566268,1.043387671670168,1.056699105952565,0.9018251861416186,0.1683135272132883,0.5059048098771509,0.5799226159595091,0.06607495532661979,0.4627490102678854,0.433014475935282,0.4496967100717293,0.2365045157522541,0.2435381051925709,0.4639389623449819,0.1265731891051202,0.02657378997737559,-0.05148972140650904,-0.02699899561590842,-0.2431263376321538,-0.2287693439773216,818.7545787545788,745.4212454212454,719.6336996336996,806.2637362637363,704.7252747252747,-0.117065,0.076904,0.990723,0.515900,-1.353302,0.755157,422271.062271,85798388.278388,53655018.315018,80.581467,1,2,1,1,2,55.000000
2025-05-02 16:04:01.163,0.9615397337566268,0.8199075802418596,0.9205020952679377,0.9018251861416186,0.1683135272132883,0.3376702913539743,0.1551257246629626,0.06607495532661979,0.4627490102678854,0.4465608501875937,0.02071495587572319,0.2365045157522541,0.2435381051925709,0.3659626003214442,0.3035273519861019,0.02657378997737559,-0.05148972140650904,-0.06507948347006827,-0.1056032508907209,-0.2287693439773216,987.1794871794872,785.7142857142858,765.9706959706959,979.1208791208792,697.0695970695971,-0.120483,0.078491,0.998230,0.770111,-1.211243,-0.800018,421465.201465,85778241.758242,53604249.084249,80.858490,1,2,1,1,2,55.000000
2025-05-02 16:04:01.192,,,,,,,,,,,,,,,,,,,,,,,,,,,,,,,,,,,,,,,,,,/muse/elements/blink
2025-05-02 16:04:02.164,0.9615397337566268,0.8546388386368848,0.949894038838189,0.9018251861416186,0.1683135272132883,0.003180483405926042,0.1847050517066491,0.06607495532661979,0.4627490102678854,-0.1779728342751566,-0.02257064297960087,0.2365045157522541,0.2435381051925709,0.1121786359060884,0.3039529092272798,0.02657378997737559,-0.05148972140650904,0.01010639549908304,-0.06062013312237041,-0.2287693439773216,693.040293040293,795.7875457875458,822.3809523809524,678.1318681318681,1005.311355311355,-0.107239,0.079163,0.996338,1.166382,-2.669220,-0.269165,422271.062271,85924908.424908,53746080.586081,81.432442,1,2,1,1,2,55.000000
2025-05-02 16:04:03.165,0.9615397337566268,0.8546388386368848,0.949894038838189,0.9018251861416186,0.1683135272132883,0.003180483405926042,0.1847050517066491,0.06607495532661979,0.4627490102678854,-0.1779728342751566,-0.02257064297960087,0.2365045157522541,0.2435381051925709,0.1121786359060884,0.3039529092272798,0.02657378997737559,-0.05148972140650904,0.01010639549908304,-0.06062013312237041,-0.2287693439773216,810.2930402930403,786.9230769230769,742.1978021978023,815.1282051282052,651.941391941392,-0.107727,0.077881,0.998169,0.598145,-0.710297,0.059814,423076.923077,85741978.021978,53654212.454212,79.977394,1,2,1,1,2,55.000000
2025-05-02 16:04:03.953,,,,,,,,,,,,,,,,,,,,,,,,,,,,,,,,,,,,,,,,,,/muse/elements/blink
2025-05-02 16:04:04.165,0.9615397337566268,1.148436825955399,0.949894038838189,0.9018251861416186,0.1683135272132883,0.6671887038575079,0.1847050517066491,0.06607495532661979,0.4627490102678854,0.3700386688926184,-0.02257064297960087,0.2365045157522541,0.2435381051925709,0.3819639385153756,0.3039529092272798,0.02657378997737559,-0.05148972140650904,-0.2791677886679548,-0.06062013312237041,-0.2287693439773216,907.3992673992674,786.9230769230769,756.7032967032967,889.2673992673992,811.0989010989011,-0.105042,0.070374,0.996643,0.747681,-1.906586,-0.082245,421465.201465,85663003.663004,53626007.326007,78.538528,1,2,1,1,2,55.000000
2025-05-02 16:04:04.935,,,,,,,,,,,,,,,,,,,,,,,,,,,,,,,,,,,,,,,,,,/muse/elements/blink
2025-05-02 16:04:05.166,0.9615397337566268,1.148436825955399,0.949894038838189,0.9018251861416186,0.1683135272132883,0.6671887038575079,0.1847050517066491,0.06607495532661979,0.4627490102678854,0.3700386688926184,-0.02257064297960087,0.2365045157522541,0.2435381051925709,0.3819639385153756,0.3039529092272798,0.02657378997737559,-0.05148972140650904,-0.2791677886679548,-0.06062013312237041,-0.2287693439773216,800.6227106227107,820.7692307692308,813.5164835164835,810.6959706959707,678.9377289377289,-0.109436,0.079468,0.995178,0.792542,-1.487885,0.800018,423882.783883,85766959.706960,53696117.216117,78.238075,1,2,1,1,2,55.000000
2025-05-02 16:04:06.166,0.9615397337566268,0.8515876283771864,0.949894038838189,0.9018251861416186,0.1683135272132883,0.6336718006113058,0.1847050517066491,0.06607495532661979,0.4627490102678854,0.4832936674164402,-0.02257064297960087,0.2365045157522541,0.2435381051925709,0.1815555744414,0.3039529092272798,0.02657378997737559,-0.05148972140650904,-0.05140470218850806,-0.06062013312237041,-0.2287693439773216,863.0769230769231,808.2783882783883,772.4175824175825,860.2564102564103,614.8717948717949,-0.117554,0.070740,1.006897,0.785065,-1.622467,-0.777588,423076.923077,85745201.465201,53655018.315018,77.540794,1,2,1,1,2,55.000000
2025-05-02 16:04:07.176,0.9615397337566268,0.9343760612747021,0.9366881232491586,0.9018251861416186,0.1683135272132883,0.6324931155803709,0.3633374259925161,0.06607495532661979,0.4627490102678854,0.3983997330061509,0.214234556472459,0.2365045157522541,0.2435381051925709,0.1660510621751311,0.3000172035803786,0.02657378997737559,-0.05148972140650904,-0.2344203556390909,-0.2202965566855603,-0.2287693439773216,790.952380952381,761.941391941392,784.5054945054945,795.7875457875458,773.2234432234433,-0.106140,0.078918,0.999573,0.785065,-1.742096,-0.037384,423076.923077,85703296.703297,53646959.706960,77.435387,1,2,1,1,2,55.000000
2025-05-02 16:04:08.178,1.015035002833206,0.6623309113473577,0.7175390114321071,0.9193443922046625,0.1948688540885809,-0.04732900698235006,0.2358429448957435,-0.09023037657544626,0.4024828141093547,0.3698547772394026,0.2677253337698662,0.04729903908550481,0.30224860453585,0.2031320445914822,0.1764920890706319,0.1371077673414023,-0.3245154721402024,-0.3208181802350779,-0.3329484655336807,-0.1851958948945334,869.92673992674,771.2087912087912,770.8058608058608,863.0769230769231,747.4358974358975,-0.118652,0.076904,0.994995,0.231781,-1.203766,0.613098,423076.923077,85758095.238095,53635677.655678,78.179733,1,1,1,1,1,55.000000
2025-05-02 16:04:09.166,0.7567760588135367,0.9682011413803701,0.4377073143479186,0.9193443922046625,0.1393771839599444,0.06788012724320955,0.204958829285677,-0.09023037657544626,0.369615131066224,0.4549592617810594,0.2210164775713399,0.04729903908550481,0.2068670505968104,0.1132598217394663,0.001521752501893163,0.1371077673414023,-0.2861702551722023,-0.3958430335284819,-0.3476127689082536,-0.1851958948945334,765.5677655677656,806.2637362637363,847.3626373626374,753.4798534798535,790.1465201465202,-0.120117,0.074829,0.994629,0.216827,-0.770111,0.029907,423076.923077,85665421.245421,53617142.857143,79.605965,1,1,1,1,1,55.000000
2025-05-02 16:04:09.826,,,,,,,,,,,,,,,,,,,,,,,,,,,,,,,,,,,,,,,,,,/muse/elements/blink
2025-05-02 16:04:10.166,0.6839375856442934,0.8693904668927501,0.6004369199628677,0.9193443922046625,0.04994618780634556,0.5005648422013356,0.248283676834041,-0.09023037657544626,0.369615131066224,0.8386934734941593,0.1370338498425797,0.04729903908550481,0.1839164785486058,0.06400823084569593,-0.07068327010120291,0.1371077673414023,-0.27259713753424,-0.2178762494036703,-0.3051972080284864,-0.1851958948945334,852.6007326007326,792.967032967033,770,853.8095238095239,542.7472527472528,-0.148743,0.068970,0.987061,0.867310,2.138367,-0.732727,423882.783883,85638021.978022,53601025.641026,79.117683,1,1,1,1,1,55.000000
2025-05-02 16:04:11.171,0.6839375856442934,0.7230796603017456,0.9650019405447234,0.9193443922046625,0.04994618780634556,0.4055522781630984,0.5245682823963743,-0.09023037657544626,0.369615131066224,0.7307083119601674,0.6043393188807508,0.04729903908550481,0.1839164785486058,0.05971683486369747,-0.001052493620403522,0.1371077673414023,-0.27259713753424,-0.1207359979842352,-0.1412603263738458,-0.1851958948945334,545.1648351648352,829.2307692307693,839.7069597069598,547.5824175824176,947.6923076923077,-0.145691,0.071960,0.988342,0.545807,-1.263580,-0.403748,423076.923077,85780659.340659,53723516.483516,78.385803,1,2,1,1,2,55.000000
2025-05-02 16:04:11.791,,,,,,,,,,,,,,,,,,,,,,,,,,,,,,,,,,,,,,,,,,/muse/elements/blink
2025-05-02 16:04:12.177,0.6839375856442934,0.4361226437988741,0.7734903544505156,0.9193443922046625,0.04994618780634556,0.3514267162792745,0.6854665286193363,-0.09023037657544626,0.369615131066224,-0.1377804553582782,0.6033201752666195,0.04729903908550481,0.1839164785486058,0.04585963551706346,-0.2391689984920941,0.1371077673414023,-0.27259713753424,-0.01687350161361843,-0.1888564180987189,-0.1851958948945334,769.5970695970697,865.0915750915751,722.0512820512821,773.6263736263736,655.1648351648352,-0.136108,0.067688,0.991272,0.508423,-1.443024,0.814972,423076.923077,85899120.879121,53717875.457875,78.376846,1,2,1,1,2,55.000000
