TimeStamp,Delta_TP9,Delta_AF7,Delta_AF8,Delta_TP10,Theta_TP9,Theta_AF7,Theta_AF8,Theta_TP10,Alpha_TP9,Alpha_AF7,Alpha_AF8,Alpha_TP10,Beta_TP9,Beta_AF7,Beta_AF8,Beta_TP10,Gamma_TP9,Gamma_AF7,Gamma_AF8,Gamma_TP10,RAW_TP9,RAW_AF7,RAW_AF8,RAW_TP10,AUX_RIGHT,Accelerometer_X,Accelerometer_Y,Accelerometer_Z,Gyro_X,Gyro_Y,Gyro_Z,PPG_Ambient,PPG_IR,PPG_Red,Heart_Rate,HeadBandOn,HSI_TP9,HSI_AF7,HSI_AF8,HSI_TP10,Battery,Elements
2025-05-02 14:05:14.681,,,,,,,,,,,,,,,,,,,,,,,,,,,,,,,,,,,,,,,,,,/muse/event/connected Muse-1C98
2025-05-02 14:05:15.587,,,,,,,,,,,,,,,,,,,,,,,,,,,,,,,,,,,,,,,,,,/muse/elements/blink
2025-05-02 14:05:15.682,1.360541694385503,-0.007957469348306895,0,0.6682921460307487,0.9773107739987269,0.4215726193346923,0,0.6055239762421782,0.9362858654643206,0.6100620833122579,0,0.8148810082263543,0.8281246458838724,1.194314782446755,0,0.4571478837841794,0.09138051378411169,0.6623474419373729,0,-0.07300343629369012,720.0366300366301,793.3699633699634,768.7912087912088,794.981684981685,722.0512820512821,-0.097656,0.194153,0.988037,0.710297,-0.852356,-0.971985,774432.234432,134673846.153846,82502417.582418,91.901024,1,1,1,2,1,80.000000
2025-05-02 14:05:16.681,0.960243187389254,-0.1356516229183604,0,0.9327589377291374,0.9372464205112235,0.2459367131819444,0,0.7847888327009493,0.7333472303482601,0.577982857159167,0,0.8148810082263543,0.741689747534597,1.134259073012979,0,0.5815632746037174,0.1506129175916827,0.6778569508114227,0,-0.0137615716317022,768.7912087912088,846.1538461538462,839.3040293040293,772.8205128205128,774.0293040293041,-0.095154,0.198730,0.984009,0.957031,-1.338348,0.485992,776849.816850,134712527.472527,82610402.930403,90.893692,1,1,1,2,1,80.000000
2025-05-02 14:05:17.124,,,,,,,,,,,,,,,,,,,,,,,,,,,,,,,,,,,,,,,,,,/muse/elements/blink
2025-05-02 14:05:17.617,,,,,,,,,,,,,,,,,,,,,,,,,,,,,,,,,,,,,,,,,,/muse/elements/blink
2025-05-02 14:05:17.693,1.054114284558608,0.3194057312427542,0,0.9327589377291374,1.237499482500954,0.3145171677857502,0,0.7847888327009493,1.165042662965803,0.6038123311810784,0,0.8148810082263543,0.8813823779463754,1.261740379854613,0,0.5815632746037174,0.1699990271142481,0.3784980130899349,0,-0.0137615716317022,811.5018315018315,838.0952380952381,683.7728937728938,801.8315018315019,642.6739926739926,-0.095703,0.171509,1.000977,-5.712280,-1.278534,-1.278534,773626.373626,134525567.765568,82541098.901099,94.175415,1,1,1,2,1,80.000000
2025-05-02 14:05:18.681,1.096012574680616,0.3335583017678005,0,0.9327589377291374,1.314494628316138,0.3265141759628321,0,0.7847888327009493,1.165042662965803,0.4700086016815246,0,0.8148810082263543,0.9167099495319359,1.280162327786873,0,0.5815632746037174,0.18425193418631,0.3569481522906425,0,-0.0137615716317022,764.7619047619048,802.2344322344322,1148.351648351648,809.4871794871796,726.4835164835165,-0.087524,0.143311,0.993896,-0.261688,-0.314026,1.719666,748644.688645,134872893.772894,82649890.109890,94.651337,1,1,1,4,1,80.000000
2025-05-02 14:05:19.681,0.9288963255020636,0.3335583017678005,0,0.3030434186773052,0.6917784053095238,0.3265141759628321,0,0.4022851321894524,1.14511216538888,0.4700086016815246,0,0.7945390074837636,0.804917186853769,1.280162327786873,0,0.468047165892899,0.6598048114264877,0.3569481522906425,0,0.349336585720754,763.5531135531136,853.0036630036631,412.6007326007326,775.6410256410256,635.8241758241759,-0.081543,0.136719,0.997375,-0.829926,-1.076660,0.291595,625347.985348,134412747.252747,82373479.853480,92.702988,1,1,1,4,1,80.000000
2025-05-02 14:05:19.732,,,,,,,,,,,,,,,,,,,,,,,,,,,,,,,,,,,,,,,,,,/muse/elements/jaw_clench
2025-05-02 14:05:20.682,1.01043450566277,0.3335583017678005,0,0.578451442084623,0.7081557566523092,0.3265141759628321,0,0.4888324222337019,0.8521318316625194,0.4700086016815246,0,0.6351849149393641,0.6849315144892757,1.280162327786873,0,0.6422298733913214,0.6044480566008956,0.3569481522906425,0,0.2970047187074607,833.2600732600733,823.992673992674,852.6007326007326,798.6080586080586,676.1172161172161,-0.076416,0.129089,0.992188,1.308441,-2.557068,-0.134583,616483.516484,134349890.109890,82217948.717949,91.373146,1,1,1,2,1,80.000000
2025-05-02 14:05:21.681,0.6220055473754983,0.3335583017678005,0,1.065276021184551,0.3191631677062742,0.3265141759628321,0,0.7099708147895827,0.762603541340702,0.4700086016815246,0,0.5371665334978865,0.585526476556569,1.280162327786873,0,0.5988100779574238,0.2789378783292769,0.3569481522906425,0,0.08115968007056194,720.4395604395604,807.4725274725275,977.5091575091575,756.3003663003664,738.974358974359,-0.084900,0.133667,0.992859,1.099091,-1.114044,-2.901001,623736.263736,134125054.945055,82137362.637363,93.770622,1,1,1,4,1,80.000000
2025-05-02 14:05:22.681,1.013041148890421,0.3335583017678005,0,1.373625820845151,0.6109379545865761,0.3265141759628321,0,0.9831686201246994,0.7952479711523035,0.4700086016815246,0,0.7746024242351375,0.6378495029944514,1.280162327786873,0,0.6006318057094597,0.2242237263610107,0.3569481522906425,0,0.08910651080686187,772.014652014652,846.5567765567765,740.989010989011,770,761.5384615384615,-0.072449,0.139709,0.989014,1.443024,-1.742096,1.443024,613260.073260,134423223.443223,82217948.717949,93.223686,1,1,1,2,1,80.000000
2025-05-02 14:05:23.475,,,,,,,,,,,,,,,,,,,,,,,,,,,,,,,,,,,,,,,,,,/muse/elements/jaw_clench
2025-05-02 14:05:23.688,1.264973323264286,0.3335583017678005,0,1.359765428448087,0.887667571339694,0.3265141759628321,0,1.068957521764265,0.6860667114221346,0.4700086016815246,0,0.9300350608073791,0.6673803096247362,1.280162327786873,0,0.7018997155332825,0.3632769812674642,0.3569481522906425,0,0.4898661058087837,805.4578754578755,808.2783882783883,617.2893772893773,812.7106227106227,850.989010989011,-0.075623,0.196350,0.986267,4.770203,0.814972,4.830017,575384.615385,134274139.194139,81914139.194139,91.201180,1,1,1,2,1,80.000000
2025-05-02 14:05:24.014,,,,,,,,,,,,,,,,,,,,,,,,,,,,,,,,,,,,,,,,,,/muse/elements/jaw_clench
2025-05-02 14:05:24.681,1.264973323264286,0.3335583017678005,0,1.111065798404818,0.887667571339694,0.3265141759628321,0,0.8628882788437968,0.6860667114221346,0.4700086016815246,0,1.107612146736854,0.6673803096247362,1.280162327786873,0,1.104098758148117,0.3632769812674642,0.3569481522906425,0,1.034472016108714,736.1538461538462,802.6373626373627,879.5970695970697,788.9377289377289,710.7692307692308,-0.065613,0.176208,0.983704,0.276642,-0.538330,0.687866,606007.326007,134207252.747253,81643369.963370,89.457253,1,1,1,1,1,80.000000
2025-05-02 14:05:25.230,,,,,,,,,,,,,,,,,,,,,,,,,,,,,,,,,,,,,,,,,,/muse/elements/jaw_clench
2025-05-02 14:05:25.686,0.5013065378410629,0.2026474472311707,0,1.285994259465874,0.8728001139845023,0.3886899585169007,0,0.7150425112495492,0.8944848592837764,0.4087477409094586,0,1.098872336144939,1.201728889638446,1.157545796476651,0,1.096513993553014,1.022055593895991,0.445867974162028,0,0.7675890400559972,732.1245421245421,792.5641025641025,856.2271062271062,796.5934065934066,726.0805860805862,-0.051208,0.164368,0.990173,1.644897,-1.801910,-2.729034,572967.032967,133884908.424908,81496703.296703,92.158737,1,1,1,2,1,80.000000
2025-05-02 14:05:25.827,,,,,,,,,,,,,,,,,,,,,,,,,,,,,,,,,,,,,,,,,,/muse/elements/blink
2025-05-02 14:05:25.827,,,,,,,,,,,,,,,,,,,,,,,,,,,,,,,,,,,,,,,,,,/muse/elements/jaw_clench
2025-05-02 14:05:26.021,,,,,,,,,,,,,,,,,,,,,,,,,,,,,,,,,,,,,,,,,,/muse/elements/jaw_clench
2025-05-02 14:05:26.340,,,,,,,,,,,,,,,,,,,,,,,,,,,,,,,,,,,,,,,,,,/muse/elements/jaw_clench
2025-05-02 14:05:26.682,0.5013065378410629,0.4119282320819265,0,1.269581726780857,0.8728001139845023,0.5757725830038335,0,0.3196524910525021,0.8944848592837764,0.2930439988242214,0,0.7270229596918998,1.201728889638446,1.158084454179953,0,1.006251750099874,1.022055593895991,0.2708063064029901,0,0.7247735742192956,856.6300366300367,826.8131868131868,577.3992673992674,818.3516483516484,637.4358974358975,-0.061646,0.166626,0.992798,1.652374,-2.295380,1.248627,572161.172161,134191941.391941,81790842.490842,92.737106,1,1,1,2,1,80.000000
2025-05-02 14:05:27.682,1.149683170538421,0.2030328844247101,0,0.7243153137174675,0.9027398698860053,0.2051331535797788,0,0.5424350104802592,0.9082854078368749,0.4400387530722649,0,0.8651519180544081,0.9239616538081292,0.9917577220899105,0,0.944747172979146,0.5730103151129929,0.395375608382781,0,0.5358418862912765,751.0622710622711,809.0842490842491,848.5714285714286,778.4615384615385,660.8058608058608,-0.065186,0.172363,0.990051,0.949554,-0.770111,1.540222,576996.336996,134210476.190476,81843223.443223,90.603302,1,1,1,2,1,80.000000
2025-05-02 14:05:28.682,1.023453505585601,0.2416632420821036,0,0.9548172169233323,0.7144967164435369,0.1515279747713666,0,0.662322408781405,0.8896676751707659,0.3819241963258746,0,0.7661869009338432,0.9381001367917837,0.9717636040304306,0,0.8295746983067899,0.4486836714497953,0.3347260338041242,0,0.3732584207159723,765.9706959706959,832.8571428571429,761.941391941392,780.0732600732601,982.3443223443223,-0.071716,0.166931,0.993958,0.059814,-1.562653,-0.590668,574578.754579,134166959.706960,81933479.853480,91.289627,1,1,1,2,1,80.000000
2025-05-02 14:05:29.682,0.9688851422472153,0.2134242221570843,0,0.8728481636720294,0.7846820717931486,-0.06644043595480641,0,0.4725705268584931,0.7806913780277747,0.007943752771392002,0,0.7214867271896147,0.5620255338423732,1.021343939019725,0,0.4317471703786,0.2753755483560956,0.3932459656472684,0,0.1259785110561788,705.1282051282052,861.8681318681319,851.7948717948718,687.8021978021978,774.0293040293041,-0.066040,0.177551,0.988342,0.613098,-1.046753,0.388794,581025.641026,134218534.798535,81933479.853480,94.575256,1,1,1,2,1,80.000000
2025-05-02 14:05:29.906,,,,,,,,,,,,,,,,,,,,,,,,,,,,,,,,,,,,,,,,,,/muse/elements/blink
2025-05-02 14:05:30.684,1.115757052038085,0.2979552839730135,0,1.100488613035398,0.807313615763483,0.0806091259994824,0,-0.2027542543440559,0.6198241558696698,-0.2222407307568093,0,0.6357443243609751,0.5923988528301174,0.9916303321413883,0,0.4323152584950503,0.1966358990465459,0.3889882796897,0,0.212837347130868,744.2124542124542,813.919413919414,808.6813186813187,756.3003663003664,702.3076923076924,-0.060242,0.184021,0.987671,1.218719,-2.198181,1.128998,581025.641026,134193553.113553,81844029.304029,94.621559,1,1,1,1,1,80.000000
2025-05-02 14:05:31.681,1.068296866503373,0.139522153714502,0,1.119837322330139,0.7590417313798865,-0.02190296735092047,0,-0.3360115862202088,0.4913683085139791,-0.1149990333052314,0,0.6039943776329131,0.5822998650218045,1.050948681532238,0,0.481241191634403,0.1884268967743142,0.04789007598404667,0,0.2096465947863248,790.1465201465202,824.3956043956044,778.8644688644689,757.9120879120879,613.2600732600732,-0.061157,0.182068,0.991943,1.323395,-2.392578,-0.291595,584249.084249,134013846.153846,81729597.069597,91.373268,1,1,1,1,1,80.000000
2025-05-02 14:05:32.251,,,,,,,,,,,,,,,,,,,,,,,,,,,,,,,,,,,,,,,,,,/muse/elements/blink
2025-05-02 14:05:32.681,1.068296866503373,0.1246911493169139,0,0.5837550781035478,0.7590417313798865,-0.142713924862272,0,0.1820908875945751,0.4913683085139791,0.09198297146795727,0,0.5083732270245275,0.5822998650218045,1.041068549780874,0,0.8823538167031203,0.1884268967743142,0.06687066302578462,0,0.2104665841860818,836.0805860805862,825.6043956043957,692.2344322344322,780.8791208791209,677.7289377289377,-0.041992,0.153137,0.986450,-4.164581,-3.887939,-2.459869,581025.641026,134131501.831502,81727985.347985,89.157570,1,1,1,2,1,80.000000
2025-05-02 14:05:33.145,,,,,,,,,,,,,,,,,,,,,,,,,,,,,,,,,,,,,,,,,,/muse/elements/blink
2025-05-02 14:05:33.684,1.068296866503373,0.1557227314099176,0,0.5837550781035478,0.7590417313798865,-0.5127722130648354,0,0.1820908875945751,0.4913683085139791,0.000469164163721663,0,0.5083732270245275,0.5822998650218045,1.041859593595292,0,0.8823538167031203,0.1884268967743142,0.1039894828893285,0,0.2104665841860818,770.8058608058608,823.1868131868132,904.1758241758242,810.2930402930403,620.5128205128206,-0.113525,0.138367,0.988281,1.084137,-1.502838,-0.007477,580219.780220,133913919.413919,81539413.919414,87.844543,1,1,1,2,1,80.000000
2025-05-02 14:05:34.686,1.068296866503373,0.1557227314099176,0,0.5837550781035478,0.7590417313798865,-0.5127722130648354,0,0.1820908875945751,0.4913683085139791,0.000469164163721663,0,0.5083732270245275,0.5822998650218045,1.041859593595292,0,0.8823538167031203,0.1884268967743142,0.1039894828893285,0,0.2104665841860818,760.3296703296703,819.5604395604396,816.3369963369963,773.6263736263736,853.8095238095239,-0.103699,0.138977,0.988342,1.241150,-1.779480,0.485992,581025.641026,133776923.076923,81424981.684982,87.762802,1,1,1,1,1,80.000000
2025-05-02 14:05:35.681,1.133836282809926,-0.2383523361125581,0,0.5837550781035478,0.7824757076240324,0.05044498922820843,0,0.1820908875945751,0.9527513540985375,0.7477416901918617,0,0.5083732270245275,0.9653739369117325,1.103732769643293,0,0.8823538167031203,0.4311787622669875,0.4983903232823986,0,0.2104665841860818,841.3186813186813,792.967032967033,697.0695970695971,800.2197802197802,1173.333333333333,-0.102356,0.144531,0.989807,0.628052,-2.115936,0.216827,579413.919414,133668131.868132,81360512.820513,90.094101,1,1,1,1,1,80.000000
2025-05-02 14:05:36.277,,,,,,,,,,,,,,,,,,,,,,,,,,,,,,,,,,,,,,,,,,/muse/elements/blink
2025-05-02 14:05:36.688,1.015078464007534,0.06004426042038178,0,1.741990070854511,0.8138202485304509,-0.07605009605027602,0,1.718692686977793,0.8112909163822766,0.743242981370514,0,1.252979701213836,0.6990362740306658,1.086609505809354,0,1.132128308235841,0.4317360974097194,0.2706570540041596,0,0.5339329334956238,769.5970695970697,822.7838827838829,752.2710622710623,808.6813186813187,670.4761904761905,-0.085388,0.146545,0.983643,0.119629,-0.986938,0.224304,575384.615385,134045274.725275,81566007.326007,93.268745,1,1,1,2,1,80.000000
2025-05-02 14:05:37.681,1.158812336120672,0.06004426042038178,0,1.741990070854511,0.8280810109229241,-0.07605009605027602,0,1.718692686977793,0.7570088421037213,0.743242981370514,0,1.252979701213836,0.7006701176133082,1.086609505809354,0,1.132128308235841,0.4641562198362198,0.2706570540041596,0,0.5339329334956238,772.8205128205128,820.3663003663004,1035.934065934066,720.8424908424909,896.5201465201466,-0.091187,0.146729,0.993347,0.598145,-1.443024,0.837402,572161.172161,133822857.142857,81558754.578755,93.333717,1,1,1,2,1,80.000000
2025-05-02 14:05:38.681,0.9335530159670514,0.1800048175578194,0,1.741990070854511,0.5052528077902219,-0.05659205431837679,0,1.718692686977793,0.8418818598025711,0.5011068459723058,0,1.252979701213836,0.5176281403376974,1.056326843414344,0,1.132128308235841,-0.09907950594051672,0.4419819666742227,0,0.5339329334956238,835.6776556776557,831.2454212454213,854.2124542124542,821.5750915750916,704.3223443223443,-0.075745,0.150391,0.988281,0.456085,-2.086029,-0.044861,572161.172161,134038021.978022,81621611.721612,88.541588,1,1,1,2,1,80.000000
2025-05-02 14:05:39.681,0.7939129052561194,0.436930524089185,0,1.741990070854511,0.2972331302002865,-0.094059845575693,0,1.718692686977793,0.4022108266175995,0.4625076052929386,0,1.252979701213836,0.4211908687340124,1.021451218008547,0,1.132128308235841,-0.05909286609471604,0.3015099982403706,0,0.5339329334956238,764.7619047619048,810.2930402930403,998.4615384615385,770.4029304029305,597.948717948718,-0.078308,0.147095,0.990845,0.067291,-2.108459,-0.209351,571355.311355,133845421.245421,81544249.084249,85.115707,1,1,1,2,1,80.000000
2025-05-02 14:05:40.688,0.4667954350437228,0.3895096552091188,0,1.741990070854511,0.2274745608693637,-0.02235780492312673,0,1.718692686977793,0.7740643419612827,0.3601369465485987,0,1.252979701213836,0.3393312558900593,1.032930162605576,0,1.132128308235841,-0.1014625912771565,0.4123012935883873,0,0.5339329334956238,780.4761904761905,815.934065934066,924.3223443223443,787.7289377289378,854.6153846153846,-0.079895,0.148132,0.982971,0.747681,-1.988831,0.575714,572161.172161,133803516.483516,81409670.329670,84.996544,1,1,1,2,1,80.000000
2025-05-02 14:05:41.681,0.5375763921714064,0.054655730332995,0,1.741990070854511,0.5358274179894994,-0.002708087626931003,0,1.718692686977793,0.8083380288026116,0.5523786920591479,0,1.252979701213836,0.529965749721592,0.9074382750311742,0,1.132128308235841,-0.1251405575939553,0.523403933244232,0,0.5339329334956238,829.6336996336996,833.6630036630037,664.8351648351648,774.8351648351648,695.8608058608058,-0.078064,0.153381,0.995300,0.358887,-1.181335,-0.665436,568131.868132,133708424.908425,81315384.615385,83.662346,1,1,1,2,1,80.000000
2025-05-02 14:05:42.680,0.8045304057048034,0.05070511937422231,0,1.741990070854511,0.6445867380339347,-0.01657708658408704,0,1.718692686977793,0.5653779362891999,0.4839700359608978,0,1.252979701213836,0.5635515604450766,0.861994623787508,0,1.132128308235841,0.09525414228565739,0.2926945085494009,0,0.5339329334956238,789.7435897435897,823.1868131868132,832.0512820512821,833.6630036630037,604.7985347985348,-0.073730,0.156494,0.988953,0.635529,-3.110352,0.500946,568131.868132,133611721.611722,81044615.384615,81.025703,1,1,1,2,1,80.000000
2025-05-02 14:05:43.224,,,,,,,,,,,,,,,,,,,,,,,,,,,,,,,,,,,,,,,,,,/muse/elements/blink
2025-05-02 14:05:43.681,0.9703269990605952,0.3595566321503129,0,1.741990070854511,0.5309834757896036,-0.1309028237245752,0,1.718692686977793,0.5217908348927568,0.09415366413858905,0,1.252979701213836,0.5293461122721239,0.994322879392713,0,1.132128308235841,0.2826945265643207,0.5490541753361271,0,0.5339329334956238,750.6593406593407,823.992673992674,822.3809523809524,776.4468864468864,757.1062271062272,-0.064941,0.148865,0.986267,1.181335,-0.613098,0.104675,575384.615385,133454578.754579,80846373.626374,80.516792,1,1,1,2,1,80.000000
2025-05-02 14:05:44.681,0.9703269990605952,0.149580267004999,0,1.741990070854511,0.5309834757896036,-0.0346239050806073,0,1.718692686977793,0.5217908348927568,0.743259817016975,0,1.252979701213836,0.5293461122721239,0.9336802039170958,0,1.132128308235841,0.2826945265643207,0.4890899230767641,0,0.5339329334956238,839.3040293040293,804.2490842490843,722.8571428571429,776.8498168498169,888.4615384615385,-0.067078,0.162231,0.986511,0.314026,-1.278534,0.171967,576190.476190,133638315.018315,80926959.706960,111.199768,1,2,1,2,2,80.000000
2025-05-02 14:05:45.681,0.4375045343389305,-0.0658910594848393,0,0.9951670875134043,0.2703762746384238,-0.02469828022075217,0,0.8639609998000088,0.9489198113405917,0.7812464930865254,0,1.170753665026864,0.572995212616353,1.033744244135457,0,1.056288339307468,0.4692271812828264,0.3173013415135857,0,0.6252979071755425,747.4358974358975,829.2307692307693,839.3040293040293,777.6556776556777,614.0659340659341,-0.062805,0.164795,0.995544,0.037384,-1.936493,-0.179443,576190.476190,133466666.666667,80820586.080586,95.730766,1,1,1,2,1,80.000000
2025-05-02 14:05:45.935,,,,,,,,,,,,,,,,,,,,,,,,,,,,,,,,,,,,,,,,,,/muse/elements/jaw_clench
2025-05-02 14:05:46.445,,,,,,,,,,,,,,,,,,,,,,,,,,,,,,,,,,,,,,,,,,/muse/elements/jaw_clench
2025-05-02 14:05:46.637,,,,,,,,,,,,,,,,,,,,,,,,,,,,,,,,,,,,,,,,,,/muse/elements/jaw_clench
2025-05-02 14:05:46.689,0.8552206811799684,0.2977258287571738,0,0.6427395126220624,0.4002846119743385,0.07902051628728053,0,0.3930480839568832,1.220416182569004,0.4996193982145247,0,0.728510319433826,1.000755361465772,1.086678911128939,0,1.069681921921501,0.7794200950319996,0.171999634930171,0,0.8445929502656204,867.1062271062272,833.6630036630037,842.9304029304029,815.934065934066,613.6630036630037,-0.063416,0.156921,0.988831,0.897217,-0.284119,-0.029907,572967.032967,132132161.172161,80409597.069597,90.663048,1,1,1,1,1,80.000000
2025-05-02 14:05:47.681,0.7730191556037465,0.2213179397878859,0,0.5524735061050184,0.6005642250903463,-0.1107245584026041,0,0.5296452265317277,0.8685891523764964,0.5448648037174998,0,0.6798127831496504,1.177580019816457,1.008696845485848,0,1.007718033099619,1.064585359578159,0.2317124059841085,0,0.8669376932900033,815.934065934066,798.6080586080586,822.7838827838829,810.6959706959707,886.0439560439561,-0.063293,0.151428,0.988281,1.031799,-1.241150,-0.717773,571355.311355,131666373.626374,80751282.051282,90.663048,1,1,1,1,1,80.000000
2025-05-02 14:05:48.681,0.7705434753385159,0.2074727019997646,0,0.5524735061050184,0.436791540456377,-0.0731277022509185,0,0.5296452265317277,0.8194824336980624,0.6341322383559879,0,0.6798127831496504,1.060813744782308,1.015206769654064,0,1.007718033099619,0.7281998856104988,0.1747962750318555,0,0.8669376932900033,755.0915750915751,815.1282051282052,782.893772893773,777.2527472527473,670.0732600732601,-0.067505,0.155579,0.989563,0.598145,-3.215027,0.598145,572161.172161,131405274.725275,81157435.897436,90.532173,1,1,1,1,1,80.000000
2025-05-02 14:05:49.602,,,,,,,,,,,,,,,,,,,,,,,,,,,,,,,,,,,,,,,,,,/muse/elements/jaw_clench
2025-05-02 14:05:49.681,0.659702718339589,0.2391685524692914,0,0.5524735061050184,0.3949317849441819,0.08976974065164228,0,0.5296452265317277,1.166607835070685,0.585322471204458,0,0.6798127831496504,0.954651901937795,1.041876445260912,0,1.007718033099619,0.7546758955004041,0.1924480040644727,0,0.8669376932900033,753.8827838827839,799.8168498168499,801.8315018315019,782.4908424908425,913.8461538461539,-0.057556,0.160095,0.991211,1.121521,-1.652374,0.074768,575384.615385,131607545.787546,81338754.578755,84.664940,1,1,1,1,1,80.000000
2025-05-02 14:05:50.114,,,,,,,,,,,,,,,,,,,,,,,,,,,,,,,,,,,,,,,,,,/muse/elements/blink
2025-05-02 14:05:50.681,0.629012384979581,0.1095227355219455,0,0.5524735061050184,0.4820990170678762,-0.08177551348606903,0,0.5296452265317277,0.8692272771434405,0.5501874692002667,0,0.6798127831496504,1.01155017160171,1.021411243177294,0,1.007718033099619,0.857353421337446,0.1174522496183438,0,0.8669376932900033,865.0915750915751,826.8131868131868,744.6153846153846,789.3406593406594,678.1318681318681,-0.051636,0.162415,0.989624,0.112152,-1.958923,0.022430,573772.893773,132013699.633700,81571648.351648,82.712448,1,1,1,1,1,80.000000
2025-05-02 14:05:51.683,0.5914275532057737,0.2664407246402254,0,0.5524735061050184,0.264097549021842,-0.01449598216159225,0,0.5296452265317277,0.6416470985819409,0.3749626043872817,0,0.6798127831496504,0.8546659209987777,1.072842741005714,0,1.007718033099619,0.6417767851568088,0.4099688678150158,0,0.8669376932900033,759.1208791208792,817.948717948718,809.4871794871796,709.5604395604396,717.6190476190476,-0.049133,0.155945,0.997498,0.433655,-1.016846,-0.239258,574578.754579,132120073.260073,81546666.666667,81.969734,1,1,1,1,1,80.000000
2025-05-02 14:05:52.685,0.7031583371968587,0.1181404818676464,0,0.5524735061050184,0.471090319203064,-0.187212464788566,0,0.5296452265317277,0.9550245299330222,0.406930754237112,0,0.6798127831496504,0.9546729485271414,1.045386897427598,0,1.007718033099619,0.7181028021498733,0.3522851274162522,0,0.8669376932900033,744.2124542124542,812.3076923076924,772.4175824175825,765.1648351648352,663.6263736263736,-0.052368,0.159729,0.994324,0.665436,-1.338348,0.239258,574578.754579,132142637.362637,81424175.824176,81.014679,1,1,1,1,1,80.000000
2025-05-02 14:05:53.445,,,,,,,,,,,,,,,,,,,,,,,,,,,,,,,,,,,,,,,,,,/muse/elements/jaw_clench
2025-05-02 14:05:53.680,0.6736402706445536,-0.1916746350661066,0,0.8169314986922751,0.3233675674387561,-0.1525067236115097,0,0.7697044181162792,0.9659960073705889,0.3224877879028987,0,1.507931796549479,1.168838810847437,0.9828340407590255,0,1.230323232494221,0.7626007112938796,0.3214082610611984,0,1.152229387729735,821.5750915750916,827.2161172161173,787.7289377289378,755.8974358974359,720.4395604395604,-0.044250,0.158813,0.992188,1.046753,-2.646790,0.964508,572967.032967,132059633.699634,81229157.509158,81.558746,1,1,1,1,1,80.000000
2025-05-02 14:05:54.681,0.8769016457695242,0.1840537968770153,0,0.9247952106910358,0.7783925838234381,-0.04410786512036601,0,0.8595738230842833,0.9965949084903045,0.3080738854549544,0,1.507931796549479,1.145256658127807,0.9583488154691465,0,1.262460060679091,0.9615042975120868,0.4069074526803311,0,1.193402545022189,755.0915750915751,825.6043956043957,805.0549450549451,730.5128205128206,635.8241758241759,-0.041748,0.163879,0.994751,1.128998,-1.114044,0.097198,574578.754579,132192600.732601,81268644.688645,84.453835,1,1,1,1,1,80.000000
2025-05-02 14:05:55.681,0.9681132851658,-0.002990992939251953,0,0.9917102444097858,0.7978266712330528,-0.01142420593565589,0,0.8696051885947113,1.061492510824473,0.03747108282650802,0,1.478225663070907,1.124010067346109,1.034029369764886,0,1.274185127787216,1.115344752813866,0.3775147223132931,0,1.190616714735108,773.6263736263736,802.2344322344322,730.9157509157509,767.1794871794872,776.8498168498169,-0.047302,0.162048,0.995422,1.054230,-1.951447,0.186920,580219.780220,132797802.197802,81483809.523810,85.418694,1,1,1,1,1,80.000000
2025-05-02 14:05:56.681,0.7361284418250422,0.1103728093030049,0,0.9917102444097858,0.4370088516699949,0.04849330242905388,0,0.8696051885947113,0.764760612269194,0.3123515235785316,0,1.478225663070907,1.229475821394637,1.055591646030329,0,1.274185127787216,1.161105669448432,0.2703460076386739,0,1.190616714735108,855.8241758241759,809.4871794871796,777.6556776556777,805.8608058608058,928.3516483516484,-0.039185,0.157959,0.994141,0.777588,-2.205658,0.635529,576996.336996,132676923.076923,81479780.219780,85.141502,1,1,1,1,1,80.000000
2025-05-02 14:05:56.902,,,,,,,,,,,,,,,,,,,,,,,,,,,,,,,,,,,,,,,,,,/muse/elements/jaw_clench
2025-05-02 14:05:57.111,,,,,,,,,,,,,,,,,,,,,,,,,,,,,,,,,,,,,,,,,,/muse/elements/blink
2025-05-02 14:05:57.615,,,,,,,,,,,,,,,,,,,,,,,,,,,,,,,,,,,,,,,,,,/muse/elements/jaw_clench
2025-05-02 14:05:57.680,0.4823032515613855,-0.2343648840822254,0,0.9917102444097858,0.2451951604623734,0.1055754183135038,0,0.8696051885947113,0.7279712522885632,0.2290021103020325,0,1.478225663070907,1.178417095283967,0.9789284865649982,0,1.274185127787216,1.006583742820808,0.3042350292733065,0,1.190616714735108,740.5860805860806,812.7106227106227,761.941391941392,783.2967032967033,619.3040293040293,-0.037048,0.160461,0.988037,1.196289,-1.480408,-0.000000,576190.476190,132604395.604396,81359706.959707,85.947319,1,1,1,1,1,80.000000
2025-05-02 14:05:58.681,0.4823032515613855,0.5538083552474125,0,0.9753677534987534,0.2451951604623734,0.03096814144832967,0,0.707330832549496,0.7279712522885632,0.09012748158472064,0,0.8831369490264738,1.178417095283967,1.003380930864094,0,1.110010144562686,1.006583742820808,0.1906509519782751,0,0.8472252395403531,753.0769230769231,796.5934065934066,745.0183150183151,739.7802197802198,1044.798534798535,-0.045593,0.162537,0.994568,0.530853,-1.360779,-0.104675,573772.893773,132360219.780220,81242051.282051,86.132797,1,1,1,1,1,80.000000
2025-05-02 14:05:59.681,0.6050519960218076,0.4341954326007702,0,0.9489149818241365,0.4403948034771809,0.09583875435797957,0,0.8794179482780771,0.9959321023650471,0.2748891797265587,0,1.014121333382263,1.212301547189228,0.9757061186150288,0,1.090189550972174,0.9900320352545733,0.1822073778001867,0,0.8046733788824441,841.7216117216118,827.6190476190476,751.0622710622711,792.1611721611722,657.5824175824176,-0.043518,0.158569,0.995239,-0.224304,-2.758942,-0.142059,576190.476190,132692234.432234,81394358.974359,86.540565,1,1,1,1,1,80.000000
2025-05-02 14:06:00.681,0.7356430814980945,0.2544227952329172,0,0.9169740733551763,0.2828195437348245,0.1723686887075466,0,0.9476126419364944,0.7240887434004543,0.4271000021969132,0,0.9288456430788672,0.9313742413059448,0.9813394513851468,0,0.8422151582821309,0.4776382327069791,0.3450654464087083,0,0.4618930963349615,728.4981684981685,832.8571428571429,788.5347985347986,736.959706959707,643.4798534798535,-0.040039,0.156799,0.992432,0.867310,-1.816864,0.396271,578608.058608,133101611.721612,81678021.978022,88.978165,1,1,1,1,1,80.000000
2025-05-02 14:06:00.880,,,,,,,,,,,,,,,,,,,,,,,,,,,,,,,,,,,,,,,,,,/muse/elements/blink
2025-05-02 14:06:01.682,0.7480196181572031,0.368752973051262,0,1.005397775583998,0.363549708984727,0.1086705240945297,0,0.9154119110293734,0.5214484945875433,0.367190667275213,0,0.5305925926182498,0.6229488597374624,0.9830235201481708,0,0.7046714646866855,0.1722830857798136,0.5340606259024736,0,0.45030871377094,750.2564102564103,804.2490842490843,748.2417582417582,751.4652014652015,841.7216117216118,-0.031555,0.161377,0.991150,0.366364,-2.437439,0.403748,581025.641026,133281318.681319,81765860.805861,93.672905,1,1,1,1,1,80.000000
2025-05-02 14:06:02.681,0.3835583920216479,0.04299001239946689,0,1.303354535866299,0.01572665275809907,-0.5757503977225727,0,0.5540783058478193,0.6198423157677647,0.1558974345286973,0,0.6402263153831504,0.3409430745098733,1.011734153421279,0,0.5730598627289031,-0.06955539388357218,0.1044763266863158,0,0.1798097047054162,827.6190476190476,819.5604395604396,786.9230769230769,756.7032967032967,670.8791208791209,-0.038513,0.159180,0.994263,0.448608,-1.487885,-0.074768,581831.501832,133094358.974359,81724761.904762,93.199326,1,1,1,1,1,80.000000
2025-05-02 14:06:03.424,,,,,,,,,,,,,,,,,,,,,,,,,,,,,,,,,,,,,,,,,,/muse/elements/blink
2025-05-02 14:06:03.680,0.4945607687644515,-0.1372389454043812,0,1.300217512283932,0.0988480895560222,-0.3176320430638497,0,0.4690152881782736,0.7434125321916195,0.2398928226260523,0,0.5668172176733435,0.4768341640053771,0.9710821554425879,0,0.550879804600939,-0.02353783826122684,0.1624764370120406,0,0.07073402039061884,857.4358974358975,813.5164835164835,789.7435897435897,788.5347985347986,824.3956043956044,-0.044067,0.159363,0.993591,1.293488,-1.577606,0.299072,582637.362637,133126593.406593,81678021.978022,89.820915,1,1,1,1,1,80.000000
2025-05-02 14:06:04.689,0.6338407919920472,0.03552100688071833,0,1.290684827941007,-0.07921319012368606,-0.07524857667536919,0,0.4899503310370554,0.5435596101059854,0.1474274675185236,0,0.5496909189093289,0.6246797732559353,0.9190279228494492,0,0.522473718818201,-0.01205327355970495,0.169632470945922,0,0.02321941621328676,801.8315018315019,772.014652014652,714.7985347985348,826.007326007326,819.96336996337,-0.048645,0.153381,0.993347,0.859833,-1.659851,0.598145,581025.641026,132884029.304029,81513626.373626,88.539444,1,1,1,1,1,80.000000
2025-05-02 14:06:04.830,,,,,,,,,,,,,,,,,,,,,,,,,,,,,,,,,,,,,,,,,,/muse/elements/blink
2025-05-02 14:06:05.681,0.6338407919920472,0.03552100688071833,0,1.290684827941007,-0.07921319012368606,-0.07524857667536919,0,0.4899503310370554,0.5435596101059854,0.1474274675185236,0,0.5496909189093289,0.6246797732559353,0.9190279228494492,0,0.522473718818201,-0.01205327355970495,0.169632470945922,0,0.02321941621328676,780.4761904761905,818.3516483516484,799.4139194139194,751.8681318681319,758.3150183150184,-0.045105,0.157898,0.987183,-0.127106,-1.158905,-0.261688,582637.362637,133226520.146520,81621611.721612,88.213043,1,1,1,1,1,80.000000
2025-05-02 14:06:06.681,0.4156083761379966,-0.393519958266422,0,1.290684827941007,0.108161396304444,0.1647229329054209,0,0.4899503310370554,0.5446304436797665,0.3538966311516643,0,0.5496909189093289,0.6263940557723758,0.8195551813836508,0,0.522473718818201,0.1312574576555003,0.4466690093261135,0,0.02321941621328676,819.5604395604396,822.3809523809524,781.2820512820513,784.9084249084249,641.4652014652015,-0.045715,0.159485,0.989746,0.029907,-1.517792,0.373840,581831.501832,133245860.805861,81572454.212454,87.039200,1,1,1,1,1,80.000000
2025-05-02 14:06:06.989,,,,,,,,,,,,,,,,,,,,,,,,,,,,,,,,,,,,,,,,,,/muse/elements/blink
2025-05-02 14:06:07.680,0.3652893062338745,-0.2363307114897487,0,1.290684827941007,0.1684113727529574,0.1119961658338759,0,0.4899503310370554,0.5446304436797665,0.3435626318165442,0,0.5496909189093289,0.6090132503984758,0.8065528108970759,0,0.522473718818201,0.1338000393359771,0.4199640708229483,0,0.02321941621328676,849.7802197802198,815.934065934066,780.0732600732601,785.3113553113553,743.0036630036631,-0.045532,0.147461,0.985352,-0.104675,-1.443024,-0.418701,581831.501832,133185421.245421,81563589.743590,87.124779,1,1,1,1,1,80.000000
2025-05-02 14:06:08.687,0.5802785185683574,0.09189595284867105,0,1.216989287000393,0.3090401884464728,-0.1936984612858174,0,1.02381369811485,0.5993503837698388,0.2001412315860077,0,1.204872438361863,0.3736431779454722,0.8172403316054067,0,1.175697287032172,-0.05050889150689231,0.4416640169048186,0,0.4541409879182468,764.7619047619048,827.6190476190476,785.7142857142858,779.2673992673992,579.0109890109891,-0.048706,0.151855,0.992432,1.218719,-1.360779,0.814972,582637.362637,132660000.000000,81406446.886447,88.843010,1,1,1,1,1,80.000000
2025-05-02 14:06:09.681,0.6770189380666227,-0.1317587212589302,0,1.318515543193849,0.4357999784828994,-0.3796468796002294,0,1.050330351362741,0.606847286653235,0.3745009880006457,0,1.166638149769209,0.3914631747116275,0.801733822992245,0,0.9267823129813419,-0.04714915888952714,0.4143546437608548,0,0.3319318021373413,841.7216117216118,825.6043956043957,777.2527472527473,807.8754578754579,689.4139194139194,-0.049988,0.152405,0.994141,0.134583,-1.271057,0.500946,582637.362637,132923516.483516,81501538.461538,90.046303,1,1,1,1,1,80.000000
2025-05-02 14:06:10.041,,,,,,,,,,,,,,,,,,,,,,,,,,,,,,,,,,,,,,,,,,/muse/elements/blink
2025-05-02 14:06:10.686,0.7881919723792804,-0.06496272683134487,0,1.484922291308657,0.5983189355834585,-0.5197393814828369,0,1.112900006217194,0.5299640337872298,0.2657586802780766,0,1.015167018826131,0.3710622917774148,0.7656267339510074,0,0.7785202050658417,0.01850707431180273,0.4887698763377464,0,0.3554443798834295,860.6593406593407,831.6483516483516,776.8498168498169,803.040293040293,536.3003663003664,-0.050415,0.153564,1.000305,1.600037,-1.801910,0.396271,583443.223443,133199120.879121,81637728.937729,88.318878,1,1,1,1,1,80.000000
2025-05-02 14:06:11.687,0.8236955616939442,-0.04775831173119794,0,0.9498423889224645,0.4710962714167643,0.126464767995602,0,0.6294123491479954,0.4165587894572613,0.4377151698479852,0,0.337497172887127,0.3733257301601852,0.8500760792215631,0,0.5648432371194748,-0.1746438780611462,0.3350979380919631,0,-0.004070686152079637,776.4468864468864,818.3516483516484,805.0549450549451,785.3113553113553,533.8827838827839,-0.064209,0.142395,0.994507,0.583191,0.014954,0.209351,585054.945055,132755091.575092,81483809.523810,85.462097,1,1,1,1,1,80.000000
2025-05-02 14:06:12.681,0.8098268580685306,-0.05490787832695633,0,0.8009814447780298,0.4655647183500952,0.2776311943803113,0,0.508499634437596,0.5107860514897865,0.5346204920650008,0,0.7920989422563806,0.39113312495048,0.784814960778636,0,0.699565767020265,-0.04995476682669778,0.3381598390315045,0,0.07741853331152278,842.5274725274726,812.3076923076924,796.1904761904763,775.2380952380953,915.4578754578755,-0.055603,0.147217,0.993164,0.343933,-1.450500,-0.343933,581831.501832,132622124.542125,81455604.395604,83.500893,1,1,1,1,1,80.000000
2025-05-02 14:06:13.692,0.5858320488991234,-0.02900555818290282,0,0.7608262357065897,0.5281828550911599,-0.01731863407372853,0,0.6178445214017948,0.463562998890197,0.4900900348438852,0,0.9918526360226082,0.4298549934810305,0.7816186473536544,0,0.6029309817144809,0.01623677659302591,0.3613403103511741,0,0.2270507045595734,868.3150183150184,822.3809523809524,789.7435897435897,744.6153846153846,551.6117216117216,-0.050903,0.151733,0.989929,0.732727,-2.093506,0.897217,582637.362637,132704322.344322,81457216.117216,82.064819,1,1,1,1,1,80.000000
2025-05-02 14:06:14.681,0.8795349167855715,-0.07159971232186228,0,1.142783374484362,0.5482891242196648,0.1801382266752481,0,0.8807416639900375,0.4361567813862986,0.6256319332662836,0,0.8054508996485737,0.3739270034185356,0.8848759484868008,0,0.5948113077018257,-0.2182737578463285,0.4802944711048965,0,0.285553497402009,757.1062271062272,826.4102564102565,749.8534798534798,779.2673992673992,666.0439560439561,-0.051270,0.144165,1.003418,0.785065,-2.198181,0.119629,587472.527473,132836483.516484,81428205.128205,80.919891,1,1,1,1,1,80.000000
2025-05-02 14:06:15.377,,,,,,,,,,,,,,,,,,,,,,,,,,,,,,,,,,,,,,,,,,/muse/elements/blink
2025-05-02 14:06:15.680,0.8822432725471548,-0.1065770804333559,0,1.267637825855274,0.2833613311937263,0.0006532540852033817,0,1.005156197799874,0.3514482462744937,0.4847166976806567,0,0.6890026607256851,0.3374010808219247,0.826153194125268,0,0.6886450277457633,-0.1858349657336534,0.3932513110513622,0,0.3484998914061018,826.007326007326,807.4725274725275,773.2234432234433,805.0549450549451,827.6190476190476,-0.049988,0.138062,0.991150,0.478516,-1.413116,0.269165,585054.945055,133128205.128205,81412087.912088,81.671555,1,1,1,1,1,80.000000
2025-05-02 14:06:16.690,0.54567100715295,0.05461063670137221,0,1.267637825855274,0.09928264871558351,-0.0009899632286263583,0,1.005156197799874,0.06119239358417809,0.3148585768281252,0,0.6890026607256851,0.2412520307926814,0.8149713569505878,0,0.6886450277457633,-0.07447102018484048,0.4770672705700078,0,0.3484998914061018,737.3626373626374,780.8791208791209,724.8717948717949,722.0512820512821,800.2197802197802,-0.054382,0.142639,0.998840,0.523376,-1.719666,-0.254211,583443.223443,132882417.582418,81246886.446886,83.270821,1,1,1,1,1,80.000000
2025-05-02 14:06:17.680,0.9556218818775348,-0.2381043378799547,0,1.267637825855274,0.6227913300224903,0.03289603003425934,0,1.005156197799874,0.6520917863336374,0.5710542191683495,0,0.6890026607256851,0.4172758492969528,0.8237219284498021,0,0.6886450277457633,0.01811017521903058,0.3773150732024173,0,0.3484998914061018,776.8498168498169,828.4249084249085,774.8351648351648,806.2637362637363,817.1428571428571,-0.054504,0.147217,1.000488,0.119629,-1.689758,-0.157013,587472.527473,132886446.886447,81229963.369963,83.348846,1,1,1,1,1,80.000000
2025-05-02 14:06:18.680,1.189816452057513,0.02705929259390374,0,1.267637825855274,0.5486004129947636,0.04210473960402315,0,1.005156197799874,0.9087895271280866,0.609244834811322,0,0.6890026607256851,0.4916845881391469,0.793141764616606,0,0.6886450277457633,-0.118465263269908,0.3388412660173216,0,0.3484998914061018,848.5714285714286,822.7838827838829,787.7289377289378,787.3260073260074,658.7912087912088,-0.050720,0.141174,0.991333,0.291595,-0.971985,0.366364,584249.084249,132416630.036630,81018827.838828,83.701279,1,1,1,1,1,80.000000
2025-05-02 14:06:19.686,0.6926089681424404,0.05154989062040325,0,1.267637825855274,0.4373044028064127,-0.2810237892211593,0,1.005156197799874,0.8409732013128847,0.2922978811427031,0,0.6890026607256851,0.5468290689840114,0.7541356459579773,0,0.6886450277457633,-0.1842343715662713,0.1866638089982512,0,0.3484998914061018,819.5604395604396,819.1575091575091,789.3406593406594,758.3150183150184,613.6630036630037,-0.050354,0.140747,0.995483,0.441132,-1.562653,-0.568237,584249.084249,132668058.608059,81114725.274725,86.608315,1,1,1,1,1,80.000000
2025-05-02 14:06:20.682,0.4029205358552339,-0.2178393430135576,0,1.267637825855274,0.3328017509927426,-0.150680535291084,0,1.005156197799874,0.6332065179065685,0.3408108326662794,0,0.6890026607256851,0.489181167748538,0.6957939257544713,0,0.6886450277457633,-0.1011115697569513,0.2919888676562943,0,0.3484998914061018,797.8021978021978,823.5897435897436,850.5860805860806,832.4542124542124,525.4212454212454,-0.054443,0.139954,0.991699,0.157013,-1.323395,0.037384,586666.666667,132522197.802198,81059120.879121,87.999947,1,1,1,1,1,80.000000
2025-05-02 14:06:21.099,,,,,,,,,,,,,,,,,,,,,,,,,,,,,,,,,,,,,,,,,,/muse/elements/blink
2025-05-02 14:06:21.681,0.4176628834435047,-0.2106604509727399,0,1.267637825855274,0.3236843519105553,-0.0002468489116598645,0,1.005156197799874,0.6525011515100358,0.2467035959326221,0,0.6890026607256851,0.5011234841399833,0.5773093881063391,0,0.6886450277457633,-0.09879336112303859,0.297309648603481,0,0.3484998914061018,850.989010989011,814.7252747252747,763.956043956044,809.4871794871796,713.5897435897436,-0.054321,0.141968,0.997192,-0.029907,-1.502838,-0.112152,585054.945055,132707545.787546,81092967.032967,88.210167,1,1,1,1,1,80.000000
2025-05-02 14:06:22.681,0.9322414274300229,0.2125810542108499,0,1.267637825855274,0.5094224901858344,0.07852043766293254,0,1.005156197799874,0.1132424849417141,0.3683333645217847,0,0.6890026607256851,0.4710068747996464,0.7848946735954518,0,0.6886450277457633,-0.2815484528272539,0.3288225488471222,0,0.3484998914061018,847.3626373626374,816.3369963369963,803.4432234432235,809.8901098901099,568.5347985347986,-0.055603,0.137939,0.992432,0.441132,-2.003784,0.067291,582637.362637,132407765.567766,80990622.710623,87.280190,1,1,1,1,1,80.000000
2025-05-02 14:06:23.681,0.9084851698650632,-0.07901549373929791,0,1.267637825855274,0.487530736896593,-0.05620941242035023,0,1.005156197799874,0.7105444269953614,0.3961519938874719,0,0.6890026607256851,0.6128058226939455,0.62303877643396,0,0.6886450277457633,0.02216403348931148,0.3463290347514472,0,0.3484998914061018,739.3772893772893,808.2783882783883,782.0879120879121,799.8168498168499,639.4505494505495,-0.053589,0.144165,0.998169,0.949554,-1.248627,-0.284119,586666.666667,132590695.970696,80994652.014652,88.820938,1,1,1,1,1,80.000000
2025-05-02 14:06:24.681,0.6904258694603099,-0.1713318057508113,0,1.267637825855274,0.2404711374716315,-0.1620985343371252,0,1.005156197799874,0.6192608462063875,0.4630027183736971,0,0.6890026607256851,0.4232927748408922,0.5722801982911774,0,0.6886450277457633,0.05126034278306998,0.4267032820789248,0,0.3484998914061018,846.5567765567765,829.6336996336996,850.5860805860806,797.3992673992674,695.8608058608058,-0.059326,0.140198,0.990417,0.231781,-1.487885,0.246735,587472.527473,132891282.051282,81092967.032967,87.962784,1,1,1,1,1,80.000000
2025-05-02 14:06:25.681,0.2811867350474961,0.01937953141957535,0,1.267637825855274,0.3419616277271832,-0.03452262572832109,0,1.005156197799874,0.5298504949487677,0.3219333419615387,0,0.6890026607256851,0.3020375641997363,0.6628485792117894,0,0.6886450277457633,-0.09541831067991419,0.4630168884096835,0,0.3484998914061018,809.8901098901099,811.9047619047619,786.1172161172161,802.6373626373627,676.5201465201466,-0.056274,0.142761,0.999207,-0.164490,-1.345825,-0.957031,583443.223443,132842124.542125,81018827.838828,84.926170,1,1,1,1,1,80.000000
2025-05-02 14:06:26.681,0.5480553958005917,-0.0371593251396297,0,1.278902319368562,0.2728417751261973,-0.17292823173139,0,1.185168006761779,0.3277206298372584,0.1256636914716099,0,1.211199125622146,0.2207642580009675,0.6753051730339364,0,0.8381731512758274,-0.001741127120373311,0.3589022003010227,0,0.1980914340727988,761.1355311355312,828.4249084249085,797.3992673992674,803.8461538461539,782.893772893773,-0.051758,0.144043,0.995789,0.770111,-1.742096,-0.276642,589084.249084,133280512.820513,81064761.904762,83.328392,1,1,1,1,1,80.000000
2025-05-02 14:06:27.689,0.5458363918135494,-0.103096947891045,0,1.211789543938651,0.10182930318114,-0.3700300227392546,0,1.37633385607707,0.663200529209698,0.118432153500213,0,1.091051243415062,0.198434150415892,0.6297427402380751,0,0.8822860550952522,0.02511249493190805,0.3223196362775184,0,0.1012341068246601,856.2271062271062,798.2051282051282,729.3040293040293,792.1611721611722,1203.150183150183,-0.056946,0.131653,0.991150,-0.254211,-0.717773,-0.456085,588278.388278,133654432.234432,81089743.589744,82.965828,1,1,1,1,1,80.000000
2025-05-02 14:06:28.685,0.3366159151378481,0.05022129323127,0,1.017498400997539,0.3979592105889942,-0.2817060524364653,0,0.8915382097092811,0.8309679206483096,0.2413463719945143,0,0.9450347912692336,0.3318146871371482,0.6664523643184344,0,0.665678668193596,-0.172710423757795,0.4030925165437723,0,0.1329940893560219,811.5018315018315,791.3553113553114,759.5238095238095,776.4468864468864,891.6849816849817,-0.055847,0.137512,0.988831,0.680389,-1.757050,0.149536,585054.945055,133011355.311355,80660219.780220,82.057228,1,1,1,1,1,80.000000
2025-05-02 14:06:29.687,0.0943709720111124,0.01689036594385337,0,0.8184714500519508,0.3811462714836182,-0.3464080768046122,0,0.8203417179002315,0.55375686711271,0.1806394949563811,0,0.9643715783689568,0.1846333159390225,0.6939827168194813,0,0.8478849384700231,-0.2929492457174818,0.3658329233080284,0,0.2793258309424992,817.948717948718,824.7985347985348,819.1575091575091,799.4139194139194,522.6007326007326,-0.053345,0.144653,0.999451,1.375732,-1.876678,0.508423,588278.388278,132418241.758242,80456336.996337,81.606079,1,1,1,1,1,80.000000
2025-05-02 14:06:30.680,0.413395071881244,0.1110317717085515,0,0.9541125758472272,0.4295341859855998,-0.2275451521901204,0,1.025717942368353,0.6631799244802947,0.05680341126585414,0,0.8840851698155182,0.2985474285691035,0.7191799362718045,0,1.041135374881552,-0.04626005942558842,0.2746665633968124,0,0.338535331161787,840.9157509157509,818.3516483516484,819.96336996337,799.0109890109891,674.9084249084249,-0.058105,0.142944,0.986877,0.433655,-1.884155,0.441132,581025.641026,131367399.267399,80656996.336996,81.617851,1,1,1,1,1,80.000000
2025-05-02 14:06:31.687,0.5162503928588109,-0.01658847926072035,0,1.018286254382523,0.5647411692572587,-0.1584761750072109,0,1.116029963220242,0.6004960201250663,0.1894344610881253,0,1.236777416052804,0.7620662408764125,0.6779763629689248,0,0.917048034443504,0.3889592795253875,0.4349449100368296,0,0.4990029645310083,752.2710622710623,793.3699633699634,726.0805860805862,758.7179487179487,890.8791208791209,-0.058044,0.138916,0.996216,0.246735,-1.420593,-0.246735,580219.780220,131713113.553114,81148571.428571,83.782501,1,1,1,1,1,80.000000
2025-05-02 14:06:32.681,0.4326042773864273,-0.008592787234822818,0,1.121881754740119,0.4070378879613437,0.09437174217559006,0,1.127965597345357,0.6354847767651614,0.1965662882712195,0,1.284001688041502,0.6621854119570322,0.6213139037216033,0,1.01957336333894,0.3415277928504911,0.4721112854773568,0,0.6262059526279765,830.0366300366301,823.992673992674,795.7875457875458,789.7435897435897,542.3443223443223,-0.051758,0.143250,0.983459,0.276642,-2.572021,0.695343,586666.666667,132204688.644689,81346813.186813,87.482010,1,1,1,1,1,80.000000
2025-05-02 14:06:33.681,0.5060207385211388,-0.1247003005454989,0,1.281339004148905,0.4582267560711411,-0.1416705514607096,0,1.050072257341746,0.07099586877790127,-0.04401925111167013,0,1.15810340972443,0.3295391407421006,0.6365274801717334,0,1.023366270392135,0.002319908230662864,0.2775843316556252,0,0.6439514465384633,865.0915750915751,812.7106227106227,803.040293040293,784.9084249084249,778.4615384615385,-0.056763,0.145203,0.996582,1.076660,-1.443024,0.284119,582637.362637,132238534.798535,81252527.472527,86.272331,1,1,1,1,1,80.000000
2025-05-02 14:06:34.680,0.7272906319415042,-0.1781694979772103,0,1.274372954381606,0.4805728194621431,-0.2177163555358656,0,1.003869772359513,0.8482481140627754,0.3819210621792457,0,1.253498244246553,0.4977576768724798,0.7063064277132916,0,0.8822676037839239,-0.07024535945509872,0.2422936723682598,0,0.4176725314370184,795.3846153846154,801.8315018315019,768.3882783882784,781.2820512820513,770.8058608058608,-0.053955,0.144775,0.989624,0.456085,-2.011261,-0.553284,589890.109890,132195824.175824,81146153.846154,82.645836,1,1,1,1,1,80.000000
2025-05-02 14:06:35.686,0.7629795098712014,-0.0790129494005512,0,0.8399169227727445,0.4218284207402092,0.00102704630254896,0,0.8242117536801035,0.9557622785577589,0.4143124981476404,0,1.061703262036738,0.5973005682056722,0.6257730028130748,0,0.4128996099132096,-0.05342615614004541,0.4037133908218245,0,0.08861830221554753,803.8461538461539,826.8131868131868,804.2490842490843,764.3589743589744,548.7912087912088,-0.059326,0.146423,0.988220,0.927124,-1.600037,0.777588,585860.805861,131579340.659341,80963223.443223,83.165070,1,1,1,1,1,80.000000
2025-05-02 14:06:36.685,0.8117221802911164,0.1618909558418509,0,0.9835924147322118,0.5399313503232339,0.02374218885803574,0,0.9265183897680711,0.8661963349550841,0.3607771743117839,0,0.8144359276387376,0.4242704254160581,0.6459647022395889,0,0.4411107634506751,-0.04234196990325338,0.4217061195382648,0,0.04552331297787109,859.4505494505495,815.1282051282052,795.7875457875458,783.6996336996338,697.4725274725275,-0.056580,0.145020,0.992371,0.426178,-1.345825,-0.441132,584249.084249,131937948.717949,81192893.772894,85.156723,1,1,1,1,1,80.000000
2025-05-02 14:06:37.681,0.3441925213902164,0.3068260587104604,0,0.792908776738131,0.5126494055913491,0.2102452903903976,0,0.8588654463454026,0.5136537743504577,0.4253973030301604,0,0.8111643543893078,0.3423977145650219,0.646679375524292,0,0.6287549539522651,-0.09165859243720961,0.3228383593558886,0,0.1088520086366583,813.1135531135532,815.5311355311355,774.8351648351648,755.0915750915751,639.4505494505495,-0.056763,0.142334,0.990295,0.530853,-1.106567,-0.044861,584249.084249,132225641.025641,81275091.575092,84.968979,1,1,1,1,1,80.000000
2025-05-02 14:06:38.681,0.5095313757042319,-0.04724984462275233,0,0.8500519980264055,0.3934512601879674,0.1215848858690741,0,1.041061772455191,0.6930120873702008,0.535906423951595,0,1.02009153742375,0.4599277845195166,0.634985056064713,0,0.8011273469450237,-0.08337624827517248,0.3244131273257294,0,0.2348500592031944,809.0842490842491,824.7985347985348,836.0805860805862,800.2197802197802,527.8388278388279,-0.053162,0.149353,0.996765,0.650482,-1.525269,0.388794,589084.249084,132350549.450549,81200146.520147,83.014702,1,1,1,1,1,80.000000
2025-05-02 14:06:39.680,0.6627986119097666,0.122908608923044,0,1.015619072401426,0.3415708352340775,-0.0003324007383297151,0,0.8715877963331272,0.7051347238792283,0.3295491562961224,0,1.015800331322733,0.4022362877412154,0.6409253903673721,0,0.5905508528344484,-0.03765394566834809,0.3736398631915983,0,0.3754334054805813,858.6446886446887,817.1428571428571,789.7435897435897,760.3296703296703,614.4688644688645,-0.054504,0.148865,0.989075,1.308441,-2.175751,-0.269165,585860.805861,132498827.838828,81115531.135531,84.598351,1,1,1,1,1,80.000000
2025-05-02 14:06:40.684,0.5426929740020067,0.1019681798540821,0,1.271338580785785,0.275311232367784,-0.03629235587591242,0,1.08549060400996,0.8213145285859051,0.4155311558358099,0,1.274163803265928,0.340929614068279,0.6729256730511617,0,0.5269506959258183,-0.1447839508124341,0.3171244755581661,0,0.1945324839659648,813.919413919414,819.1575091575091,804.6520146520147,768.7912087912088,622.5274725274726,-0.051025,0.142395,0.984863,0.254211,-1.323395,-0.014954,583443.223443,132041904.761905,80968058.608059,87.354195,1,1,1,1,1,80.000000
2025-05-02 14:06:41.681,0.3506003418627788,-0.18424900613269,0,1.230644918767014,0.2512524286323687,0.07239529643498481,0,1.200254680507346,0.6828018691510028,0.4341072027530115,0,1.347396652697148,0.3772930296505304,0.639279781806376,0,0.8730858958133504,-0.2293775451271939,0.2247938507554987,0,0.1776293545392856,753.4798534798535,807.8754578754579,755.4945054945055,736.1538461538462,628.1684981684982,-0.053040,0.149963,0.995361,0.328979,-1.547699,0.284119,588278.388278,132292527.472527,81031721.611722,85.950912,1,1,1,1,1,80.000000
2025-05-02 14:06:42.681,0.3997380255151537,0.1103724719815134,0,1.088997919922059,0.395754338775654,-0.01385490589016012,0,1.118975658297546,0.7707852884770613,0.337282872477928,0,1.185351992201963,0.32205695308414,0.6380164762951185,0,0.8258377570547855,-0.1661291832964766,0.3791709517381017,0,0.1470447722047952,846.5567765567765,812.3076923076924,772.8205128205128,792.5641025641025,776.0439560439561,-0.052856,0.148254,1.000671,1.166382,-1.884155,0.119629,586666.666667,132689816.849817,81054285.714286,82.282318,1,1,1,1,1,80.000000
2025-05-02 14:06:43.681,0.2255530254211441,0.03515189031112809,0,0.969934772290132,0.4206270549204097,-0.1842604303503858,0,0.7150869014146131,0.7951063505237259,0.1554672822909962,0,1.090072177312513,0.372660923601265,0.7020729000780339,0,0.6849004593637886,-0.03786538025718419,0.3677447835175774,0,0.09261620863238924,812.3076923076924,817.5457875457876,797.3992673992674,796.1904761904763,564.5054945054945,-0.051880,0.144348,0.995300,1.121521,-1.345825,0.807495,584249.084249,132253040.293040,80787545.787546,81.598747,1,1,1,1,1,80.000000
2025-05-02 14:06:44.681,0.3635132550943181,-0.1961755539138969,0,0.8723360024856521,0.3377325774628029,-0.348494804479362,0,0.6705484283435642,0.7370926195277093,0.1591360189687248,0,0.8994414272240429,0.2613097902041897,0.7896079288517655,0,0.6910468287102567,-0.104994622918583,0.3054931713650625,0,-0.1901355971549006,750.2564102564103,806.6666666666667,746.6300366300367,767.5824175824176,707.1428571428571,-0.048950,0.143860,0.998779,0.463562,-1.659851,-0.142059,590695.970696,132149890.109890,80675531.135531,82.747345,1,1,1,1,1,80.000000
2025-05-02 14:06:45.680,0.2285531750173787,-0.07065149617281129,0,1.250638048344721,0.1744789025815263,-0.120053115822568,0,1.0666947265751,0.7759360310271953,0.3116328686712951,0,1.257388208457172,0.2238803801411468,0.7633677163215089,0,0.9205536466229182,-0.2065292094720107,0.2580350485848488,0,0.2668226450240771,835.2747252747253,805.8608058608058,792.5641025641025,784.5054945054945,880.4029304029305,-0.045044,0.140320,0.993530,0.358887,-1.398163,0.336456,588278.388278,132499633.699634,80751282.051282,81.377914,1,1,1,1,1,80.000000
2025-05-02 14:06:46.681,-0.1074376387539297,-0.1170192294016281,0,1.324819574153133,0.0865466861580948,0.02311491215325121,0,0.9144595363719169,0.7476368624718742,0.2026750778962549,0,1.268746624499594,0.2737756858368198,0.7299571212392575,0,0.7685551068550313,-0.2010332444689502,0.3897830066740174,0,0.3072996049093564,815.1282051282052,811.9047619047619,781.6849816849817,782.0879120879121,632.6007326007326,-0.044922,0.145325,1.001648,0.201874,-0.971985,-0.822449,591501.831502,132209523.809524,80606227.106227,79.147919,1,1,1,1,1,80.000000
2025-05-02 14:06:47.681,0.2599847259643855,-0.2787631066607289,0.5555638386385938,1.158491853994523,0.129093601999854,0.1622856396351471,0.7784969780351845,0.8410117538979628,0.5548982555913649,0.2700776650174588,0.5360318683871984,0.9425615332421133,0.4081255592703377,0.6378370955361347,1.070877607178841,0.6534501034531237,-0.0990502804940338,0.3635429967293475,0.8435204035869313,0.1142822686117514,807.0695970695971,814.3223443223443,793.3699633699634,788.5347985347986,653.956043956044,-0.048218,0.143555,0.994019,0.328979,-1.809387,0.366364,591501.831502,132077362.637363,80446666.666667,78.169785,1,1,1,1,1,80.000000
2025-05-02 14:06:48.680,0.3404680522437145,-0.4254246789894157,0.5555638386385938,1.137645029414938,0.1664431865646546,-0.01859708882914066,0.7784969780351845,0.6484904505130489,0.6050429982781513,0.2797686522485037,0.5360318683871984,0.9437462836088009,0.5026816092893182,0.7227525202452,1.070877607178841,0.7064726686859791,-0.0306739468223551,0.153070432950671,0.8435204035869313,-0.0908494166106935,836.0805860805862,778.4615384615385,778.8644688644689,788.5347985347986,1193.479853479854,-0.043274,0.142639,0.992493,0.800018,-1.525269,-0.231781,587472.527473,132120879.120879,80457142.857143,79.324623,1,1,1,1,1,80.000000
2025-05-02 14:06:49.690,0.7012984951601696,-0.213303095360676,0.5555638386385938,1.325458513574976,0.473560313657793,-0.006621732711626731,0.7784969780351845,0.9377481529039293,0.6862497770935549,0.3743481254415317,0.5360318683871984,1.145072454891852,0.4911486178570111,0.696758674378578,1.070877607178841,0.814482214463904,-0.1038868762456372,0.2047997483120869,0.8435204035869313,0.1450614884646209,820.7692307692308,820.7692307692308,793.3699633699634,819.1575091575091,631.3919413919414,-0.045410,0.138550,0.996277,0.201874,-1.704712,-0.396271,583443.223443,131898461.538462,80461172.161172,79.530006,1,1,1,1,1,80.000000
2025-05-02 14:06:50.684,0.704154177405113,-0.1422763039705485,0.5555638386385938,1.419389928567786,0.5795666818780857,-0.1652187429328396,0.7784969780351845,1.004116859521565,0.7101063525696366,0.2617678833066028,0.5360318683871984,1.18220714597333,0.3830813328441627,0.6933687488067422,1.070877607178841,0.9652723445931674,-0.1344783796677331,0.2048397746523719,0.8435204035869313,0.4879304971322539,792.5641025641025,818.7545787545788,811.5018315018315,772.4175824175825,724.4688644688645,-0.049500,0.142944,0.993835,1.084137,-1.614990,0.613098,586666.666667,131909743.589744,80494212.454212,77.822083,1,1,1,1,1,80.000000
2025-05-02 14:06:51.465,,,,,,,,,,,,,,,,,,,,,,,,,,,,,,,,,,,,,,,,,,/muse/elements/blink
2025-05-02 14:06:51.680,0.2815543717983568,-0.262242916112524,0.5555638386385938,0.9824368087543951,0.2846734814522519,-0.2254439294306941,0.7784969780351845,1.006677854379442,0.5763460737732268,0.2303967647204273,0.5360318683871984,1.208731004558876,0.3461913000410108,0.6300020800213454,1.070877607178841,0.8351638238739241,-0.1772586939501021,0.1646093432397735,0.8435204035869313,0.4624624010025353,854.2124542124542,814.7252747252747,810.2930402930403,796.1904761904763,687.8021978021978,-0.042480,0.144348,0.995789,0.508423,-1.510315,0.104675,587472.527473,131915384.615385,80569963.369963,76.609367,1,1,1,1,1,80.000000
2025-05-02 14:06:52.691,-0.3070900999194273,-0.3400274688810341,0.5555638386385938,0.7138767769439728,0.04940374580087641,-0.2731340322360279,0.7784969780351845,1.040879890310726,0.5673874224165394,0.02922801577219874,0.5360318683871984,1.118486874356773,0.1356823387487515,0.6545929022989143,1.070877607178841,0.5901497215077225,-0.1278977153723982,0.1398674524309954,0.8435204035869313,0.3219431625247612,817.1428571428571,833.2600732600733,817.1428571428571,795.3846153846154,545.1648351648352,-0.049438,0.143738,0.999451,-0.052338,-1.353302,-1.099091,581025.641026,131427838.827839,80414432.234432,79.006538,1,1,1,1,1,80.000000
2025-05-02 14:06:53.685,0.6100317060357128,0.01524012638639406,0.5555638386385938,0.7478490366794351,0.2390267751589377,0.0223132715677588,0.7784969780351845,1.225664174825408,0.657895658108725,0.1537273410630268,0.5360318683871984,1.513472673099369,0.3193432335222742,0.6290122561665682,1.070877607178841,1.188973331691304,-0.09793447024862649,0.126954155958858,0.8435204035869313,0.4558344117482442,791.3553113553114,814.7252747252747,784.1025641025641,775.6410256410256,545.9706959706959,-0.043762,0.144104,0.996704,1.069183,-1.196289,0.620575,587472.527473,131364981.684982,80386227.106227,80.172508,1,1,1,1,1,80.000000
2025-05-02 14:06:54.681,0.4429930460829604,-0.004919702413181406,0.5555638386385938,0.9220460066618948,0.1900927182787836,-0.1304247294284193,0.7784969780351845,0.7705887185566233,0.6848280992631353,0.2110796396001707,0.5360318683871984,1.257841495940753,0.3720970745499652,0.6533614430274386,1.070877607178841,0.8538455506383673,-0.1845988214167285,0.2479018300814707,0.8435204035869313,0.2067126006541477,858.6446886446887,802.6373626373627,780.8791208791209,799.0109890109891,777.6556776556777,-0.039673,0.143250,0.989075,1.233673,-1.929016,-0.014954,584249.084249,131516483.516484,80510329.670330,80.507256,1,1,1,1,1,80.000000
2025-05-02 14:06:55.680,0.5201840342388271,-0.01401837753242871,0.5555638386385938,0.9756165737823606,0.2853435800774146,0.02647178041618326,0.7784969780351845,0.8676569720548727,0.5926507464602955,0.4913466341671131,0.5360318683871984,0.9011049072132268,0.5858212598415906,0.6731841280826171,1.070877607178841,0.6697133257193,-0.1440312001367392,0.2546594503814056,0.8435204035869313,0.08707122148046326,817.1428571428571,818.7545787545788,809.8901098901099,783.6996336996338,618.4981684981685,-0.044617,0.143433,0.994873,1.076660,-1.540222,0.530853,581025.641026,131162710.622711,80455531.135531,81.717804,1,1,1,1,1,80.000000
2025-05-02 14:06:56.680,0.3768428460827928,0.1950638996511406,0.5555638386385938,1.096717127338466,0.1196940068551574,-0.04550431624341463,0.7784969780351845,0.9673577163220054,0.6678477087504932,0.4289695551590208,0.5360318683871984,1.115587220679468,0.3330478783099031,0.6454919222153715,1.070877607178841,0.573655482551755,-0.1207328039111545,0.3133215028995627,0.8435204035869313,0.01227347023597748,761.5384615384615,794.981684981685,734.5421245421246,755.8974358974359,802.2344322344322,-0.039429,0.140381,0.992310,0.366364,-1.622467,-0.680389,586666.666667,131346446.886447,80559487.179487,83.618759,1,1,1,1,1,80.000000
2025-05-02 14:06:57.680,0.2720395093151362,0.2105471462806072,0.5555638386385938,0.8987912246345919,0.4483171137227902,-0.0315430612193437,0.7784969780351845,0.8227287577735781,0.5109694887092211,0.2894614012844728,0.5360318683871984,1.23414847625492,0.3066682580235506,0.6215062192150547,1.070877607178841,0.6530393125985886,-0.1637628472536955,0.2519042538106993,0.8435204035869313,0.08856281704748654,861.4652014652015,818.3516483516484,800.2197802197802,787.3260073260074,618.0952380952381,-0.037292,0.143066,0.994629,0.179443,-0.000000,0.276642,585054.945055,131273919.413919,80563516.483516,83.674294,1,1,1,1,1,80.000000
2025-05-02 14:06:58.680,0.5832949906362902,-0.01469634544105503,0.5555638386385938,0.91605861871653,0.5146888037779151,0.07832020864132264,0.7784969780351845,0.7788445115161048,0.6077076106452998,0.3189159263394643,0.5360318683871984,1.026573119337611,0.469398723086967,0.6373146185312228,1.070877607178841,0.4808034742480725,-0.199883260516374,0.3196208599283137,0.8435204035869313,-0.02790190258950709,811.5018315018315,828.021978021978,803.8461538461539,787.7289377289378,581.025641025641,-0.037964,0.144043,0.993347,0.680389,-1.689758,0.508423,581025.641026,131168351.648352,80452307.692308,82.505470,1,1,1,1,1,80.000000
2025-05-02 14:06:59.680,0.592455075117851,0.07629704150542217,0.5555638386385938,0.9946284339482062,0.3498286734904127,-0.1125747770651655,0.7784969780351845,0.5640054955907561,0.5361770498874803,0.3981368642542551,0.5360318683871984,0.7084178273686981,0.4269666136894942,0.7068685152735346,1.070877607178841,0.3233288999987512,-0.1506476442148765,0.3676566487859994,0.8435204035869313,-0.2003360158487017,757.5091575091575,802.2344322344322,751.0622710622711,778.8644688644689,754.2857142857143,-0.036194,0.141418,0.996033,0.358887,-1.472931,-0.740204,586666.666667,131361758.241758,80504688.644689,82.741516,1,1,1,1,1,80.000000
2025-05-02 14:07:00.680,0.6283909962303684,-0.09695214042905118,0.5555638386385938,0.7707040366692264,0.2931353405731172,-0.4155019234425534,0.7784969780351845,0.4898730653185747,0.4306918207076093,0.4218940108261758,0.5360318683871984,0.8987762982379629,0.4250565418499467,0.7053737922374511,1.070877607178841,0.2763824402910328,-0.04636559769191424,0.3501516923305486,0.8435204035869313,-0.1180604303313194,844.5421245421246,811.5018315018315,803.4432234432235,794.5787545787546,655.5677655677656,-0.035828,0.139648,0.986389,0.209351,-2.699127,0.478516,585860.805861,131618827.838828,80573186.813187,81.925346,1,1,1,1,1,80.000000
2025-05-02 14:07:01.680,0.7411725036943712,0.2153174030921361,0.5555638386385938,0.7866899395450857,0.5234866648738504,-0.3882836184248222,0.7784969780351845,0.7857867816961804,0.5300887859199379,0.3113657499965966,0.5360318683871984,0.831541655315702,0.3757424464397494,0.6889815583479657,1.070877607178841,0.3819953767424847,-0.1084828083601389,0.2004351148765122,0.8435204035869313,-0.07176200633656324,821.978021978022,809.8901098901099,788.1318681318681,778.4615384615385,686.1904761904763,-0.036377,0.152954,1.000488,0.889740,-1.854248,0.194397,583443.223443,131539047.619048,80495824.175824,79.982506,1,1,1,1,1,80.000000
2025-05-02 14:07:02.684,0.6236752485999271,0.08739918571701163,0.5555638386385938,0.6637406333855892,0.5423950733967902,-0.0735380135113036,0.7784969780351845,0.7508582819001155,0.5264401344132836,0.2003983303069751,0.5360318683871984,0.7170562331188589,0.2512611273922422,0.7107719810460034,1.070877607178841,0.3997198387408546,-0.08239240139832615,0.2270776291922874,0.8435204035869313,0.05382536514834227,794.981684981685,819.5604395604396,794.1758241758242,775.2380952380953,760.7326007326008,-0.046265,0.139160,0.999268,-0.007477,-1.226196,-0.082245,590695.970696,131673626.373626,80472454.212454,79.790016,1,1,1,1,1,80.000000
2025-05-02 14:07:03.680,0.5455337034826738,0.04155239892287612,0.5555638386385938,1.341524562603781,0.5773890197792313,-0.102472051330651,0.7784969780351845,1.204594610401865,0.5919187614267432,0.2586380540373669,0.5360318683871984,1.109947821721921,0.4190501595663388,0.6596042229618694,1.070877607178841,0.7131464664880349,-0.2015351803876211,0.3244127272795186,0.8435204035869313,-0.07169295703472282,835.6776556776557,811.5018315018315,791.3553113553114,781.6849816849817,628.974358974359,-0.030457,0.143311,1.000671,0.478516,-1.166382,-1.046753,586666.666667,131408498.168498,80283076.923077,81.662331,1,1,1,1,1,80.000000
2025-05-02 14:07:04.690,0.6703142064442211,-0.1018027261399198,0.5555638386385938,1.282681000516041,0.3221045486191099,-0.03481771071593151,0.7784969780351845,0.8235017973527443,0.4691207177251284,0.3008874915207497,0.5360318683871984,0.8257134291853752,0.4006760565463365,0.6355063128469939,1.070877607178841,0.6795729303851147,-0.2865591828403777,0.2361246966144624,0.8435204035869313,0.02079350827400242,825.6043956043957,832.0512820512821,823.1868131868132,793.3699633699634,572.5641025641025,-0.042786,0.145386,0.995361,0.171967,-1.622467,-0.149536,585054.945055,131641391.941392,80267765.567766,82.742058,1,1,1,1,1,80.000000
2025-05-02 14:07:05.687,0.3631275053202146,0.08111081938154462,0.5555638386385938,1.197224337780627,0.3034253474825008,-0.2264518700504227,0.7784969780351845,0.7538599121610167,0.7409598328730732,0.408694850436271,0.5360318683871984,0.9614011962480536,0.3607636499965212,0.7005883569212843,1.070877607178841,0.583770077924789,-0.1327184366334308,0.2555008523460868,0.8435204035869313,0.1044166223959053,787.7289377289378,805.4578754578755,799.8168498168499,782.893772893773,572.5641025641025,-0.036560,0.143311,0.997742,0.082245,-1.958923,0.112152,590695.970696,131672820.512821,80258095.238095,82.417953,1,1,1,1,1,80.000000
2025-05-02 14:07:06.685,0.4318247219221166,0.1109249968666583,0.5555638386385938,1.120485545852854,0.57124617701991,-0.1630691253163229,0.7784969780351845,0.7445391026177718,0.689459406240963,0.3931342859044536,0.5360318683871984,0.9528749442389479,0.3234955377267558,0.7236561224329415,1.070877607178841,0.5726243696105251,-0.1727428932122422,0.263393419246049,0.8435204035869313,0.2005091573850108,837.6923076923077,805.4578754578755,801.8315018315019,783.2967032967033,840.1098901098901,-0.034546,0.151489,0.995605,1.061707,-1.906586,-0.089722,586666.666667,131153846.153846,80104175.824176,83.137428,1,1,1,1,1,80.000000
2025-05-02 14:07:07.686,0.5036845962980929,0.07178360847041317,0.5555638386385938,0.9225683534099761,0.4525738725194029,0.03765610110111716,0.7784969780351845,0.9176505683769253,0.6517332350231602,0.4502614900377957,0.5360318683871984,1.108819316172384,0.4270746046319828,0.6403860353932272,1.070877607178841,0.8470395668050003,-0.3033921502444588,0.2769567483578002,0.8435204035869313,0.2115283882068326,818.3516483516484,813.1135531135532,801.4285714285714,765.9706959706959,554.0293040293041,-0.039490,0.136292,0.991455,0.022430,-0.957031,-0.104675,585860.805861,131429450.549451,80301611.721612,84.667023,1,1,1,1,1,80.000000
2025-05-02 14:07:08.684,0.3277636172005289,-0.09124203704581672,0.5555638386385938,1.062190371367698,0.171238026839336,-0.2069588652199523,0.7784969780351845,1.251393924175244,0.698186006403856,0.4197584087018316,0.5360318683871984,1.064278422788932,0.4780802895865553,0.5948636645653042,1.070877607178841,0.8343269745778634,-0.3280505642124665,0.3751892181003517,0.8435204035869313,0.2443296611774997,801.4285714285714,809.0842490842491,791.7582417582418,777.2527472527473,657.5824175824176,-0.032593,0.146362,0.991333,0.852356,-1.757050,0.127106,589890.109890,131103076.923077,80260512.820513,84.892410,1,1,1,1,1,80.000000
2025-05-02 14:07:09.684,0.544060100475744,0.008642779043439431,-0.05588661915228281,1.162115111498444,0.2604761870244188,-0.3357833570341007,0.2621591433216036,1.166057461076493,0.7158872922205423,0.4035524697218037,0.4613027037452883,0.8727204778424695,0.3876859169760292,0.6129737747605034,1.012996102066389,0.5745588827844873,-0.3158527732033011,0.3475507860189352,0.7991671721231859,0.0398328971106424,834.8717948717949,809.0842490842491,789.7435897435897,790.1465201465202,791.7582417582418,-0.041748,0.138184,0.997192,-0.246735,-1.166382,0.127106,588278.388278,131410109.890110,80331428.571429,84.438667,1,1,1,1,1,80.000000
2025-05-02 14:07:10.686,0.5397099870188858,-0.2012943254134971,-0.05588661915228281,1.363644654789931,0.275925010532556,-0.3486031263633246,0.2621591433216036,0.9290540010581977,0.5490612605208676,0.5403604891646322,0.4613027037452883,0.997669656810631,0.1543370685776934,0.5990963970469171,1.012996102066389,0.443149343945596,-0.367418554835274,0.1802759627987009,0.7991671721231859,0.05020503796435876,819.1575091575091,817.948717948718,795.3846153846154,774.0293040293041,568.5347985347986,-0.035645,0.137085,0.987305,0.366364,-1.315918,0.276642,582637.362637,130982197.802198,80189597.069597,85.990898,1,1,1,1,1,80.000000
2025-05-02 14:07:11.682,0.6515558220060169,0.06626702283648284,-0.05588661915228281,1.189162532132729,0.2481086464804841,-0.1378176269447758,0.2621591433216036,0.7335856272912044,0.5398185315697518,0.5424043568485967,0.4613027037452883,0.8395676238341002,0.2641037304983722,0.6749200265517259,1.012996102066389,0.5045328124294217,-0.3137801311424989,0.1830852570432641,0.7991671721231859,0.009658756569503307,799.0109890109891,810.6959706959707,787.7289377289378,771.2087912087912,691.4285714285714,-0.032410,0.149902,0.999573,0.792542,-1.398163,-0.067291,589084.249084,130891941.391941,80114652.014652,87.320602,1,1,1,1,1,80.000000
2025-05-02 14:07:12.680,0.5375388145203599,0.08719524002697898,-0.05588661915228281,1.220771351092741,0.3740606777825632,-0.03385970022461333,0.2621591433216036,0.669156825765332,0.6894123224224438,0.4298774418535127,0.4613027037452883,1.003302482186524,0.438242741923436,0.6515691895710329,1.012996102066389,0.6932461975066257,-0.3040345169779701,0.4346699953076514,0.7991671721231859,-0.08883854414586534,841.3186813186813,811.9047619047619,784.5054945054945,772.8205128205128,672.4908424908425,-0.041199,0.141724,0.999573,0.224304,-0.882263,-0.538330,588278.388278,131045860.805861,80211355.311355,86.790031,1,1,1,1,1,80.000000
2025-05-02 14:07:13.681,0.4977339878462766,0.0008410990609404211,-0.05588661915228281,1.233986511131078,0.4316694455147186,-0.1834813513889456,0.2621591433216036,0.5680872219562807,0.8213995627898323,0.4111008416551499,0.4613027037452883,0.9944353835705592,0.3654808508930882,0.6362608510533578,1.012996102066389,0.7338389170949593,-0.2391309445530834,0.3402338644485809,0.7991671721231859,-0.00372039199447644,825.6043956043957,836.4835164835165,828.4249084249085,779.6703296703297,682.967032967033,-0.037781,0.144653,0.985962,0.328979,-1.069183,0.426178,581831.501832,130650183.150183,80187179.487179,83.256294,1,1,1,1,1,80.000000
2025-05-02 14:07:14.685,0.3613874000358804,0.08827449394766897,-0.05588661915228281,0.7818703545844254,0.3447970956928652,-0.2505555961826776,0.2621591433216036,0.6252336063095714,0.8543534122648121,0.07878720681797234,0.4613027037452883,0.9850285263253098,0.3543068313478384,0.7053051684531285,1.012996102066389,0.5600448326553583,-0.2736387658737502,0.1292843822714855,0.7991671721231859,0.03747547280518581,791.7582417582418,812.3076923076924,791.7582417582418,747.8388278388279,722.0512820512821,-0.036438,0.149048,0.993042,0.306549,-1.487885,0.261688,588278.388278,130738021.978022,80357216.117216,82.031281,1,1,1,1,1,80.000000
2025-05-02 14:07:15.687,-0.02016064997634861,0.1250068076977127,-0.05588661915228281,1.066676156682728,0.0669646327394081,-0.1636709046504702,0.2621591433216036,0.9900700309257127,0.4670321517378324,0.3263450320983438,0.4613027037452883,0.9957901347316397,0.2891541444554261,0.758715837178501,1.012996102066389,0.6202017966601381,-0.2704593383092901,0.3047434312090475,0.7991671721231859,-0.06965314228201047,848.974358974359,816.3369963369963,821.1721611721612,752.6739926739926,646.7032967032967,-0.036194,0.140442,0.995850,0.807495,-1.697235,0.291595,588278.388278,131093406.593407,80549010.989011,82.137947,1,1,1,1,1,80.000000
2025-05-02 14:07:16.689,0.3120795200128496,0.2853105965640813,-0.05588661915228281,1.155292591569652,0.1188279097004655,-0.2318901013560727,0.2621591433216036,0.8097598522159662,0.3130633574123778,0.2229934161305289,0.4613027037452883,1.077395158622071,0.3520022514068741,0.6259037248327876,1.012996102066389,0.7045561833087244,-0.2953563524475211,0.3085064634832512,0.7991671721231859,0.02894259498167734,823.5897435897436,826.8131868131868,816.3369963369963,761.1355311355312,796.996336996337,-0.029968,0.143860,0.988647,0.254211,-2.631836,0.515900,583443.223443,130825054.945055,80419267.399267,80.415497,1,1,1,1,1,80.000000
2025-05-02 14:07:17.680,0.1701246203039249,0.2503451058907485,-0.05588661915228281,1.022422318880301,0.3381861746349001,-0.218262914008329,0.2621591433216036,0.8363076991722505,0.8154652792719675,0.337095037613607,0.4613027037452883,0.8753035893396045,0.3215343526919779,0.5710287870930405,1.012996102066389,0.6657886243763756,-0.2275691980186412,0.2194909671744431,0.7991671721231859,0.08272137720949939,785.7142857142858,805.0549450549451,792.967032967033,759.92673992674,726.4835164835165,-0.036865,0.145874,0.991821,1.009369,-1.577606,-0.029907,590695.970696,130526886.446886,80322564.102564,78.068123,1,1,1,1,1,80.000000
2025-05-02 14:07:18.687,-0.1190797465718102,-0.07527178695140664,0.1707662568675045,1.217788184720859,0.254806935259239,0.0796492171534901,0.2768745944073842,1.052027136926275,0.794699447504533,0.2867433530522869,0.6456136936290818,0.9502148670580781,0.2185981922648803,0.6318550686811573,0.9554883143215817,0.527593344382662,-0.2326711655711016,0.1685210559118345,0.3915037992871822,0.06507983169835524,852.6007326007326,813.5164835164835,792.967032967033,764.7619047619048,671.6849816849817,-0.036255,0.137329,0.992004,-0.022430,-1.435547,-0.127106,588278.388278,130702564.102564,80439413.919414,76.958679,1,1,1,1,1,80.000000
2025-05-02 14:07:19.688,0.3744125004021942,0.04638723633168997,0.01585033585761193,1.046602077980499,0.0004679588408190617,0.07516750009917093,0.376682899550446,0.893672369560828,0.4974276730190618,0.4188057055135447,0.6238871887359803,0.9291219125152461,0.1618180831747886,0.6331467875937601,0.9475284527575445,0.5988696793470125,-0.2491145651257352,0.1903761869490886,0.4873773346253145,0.01146123738549947,815.5311355311355,815.1282051282052,804.2490842490843,776.0439560439561,633.4065934065934,-0.028809,0.145081,1.002930,0.328979,-0.979462,-0.613098,583443.223443,130328644.688645,80353186.813187,79.448097,1,1,1,1,1,80.000000
2025-05-02 14:07:20.683,0.2077119725774389,0.1356887683317475,0.1444487950172479,1.176409049181104,0.3566897334387285,-0.1387498552423283,0.4282882662391642,0.9884610146700382,0.5307762289907415,0.34658359441474,0.583880272335543,1.003145464833188,0.316000708410018,0.6811281128959947,0.918165175148315,0.609192088402589,-0.1843377679838943,0.2339841643557428,0.4748041060071082,-0.1743345606975998,786.1172161172161,801.8315018315019,786.1172161172161,768.7912087912088,723.6630036630037,-0.037781,0.141296,0.997375,0.037384,-1.517792,0.082245,589890.109890,130554285.714286,80430549.450549,82.113167,1,1,1,1,1,80.000000
2025-05-02 14:07:21.680,0.143963508500133,-0.2332715719139532,0.1444487950172479,1.414152390705079,0.3045393259054237,-0.5234985830755462,0.4282882662391642,1.154067751169545,0.671966040419782,0.09002401446331051,0.583880272335543,0.9845599650252351,0.4514486111472597,0.6934041560500507,0.918165175148315,0.6616734325814053,-0.1533201964342221,0.2916005503113919,0.4748041060071082,-0.191967243642912,834.4688644688645,817.5457875457876,823.1868131868132,786.1172161172161,566.1172161172161,-0.026001,0.141235,0.996033,0.231781,-2.564545,0.770111,588278.388278,131036996.336996,80563516.483516,82.664253,1,1,1,1,1,80.000000
2025-05-02 14:07:22.686,0.3055854619078089,-0.002122858716762373,0.1444487950172479,1.510280688097515,0.1942017521227676,0.003887030082646369,0.4282882662391642,0.6152493239323734,0.6340557013115437,0.3081545352013332,0.583880272335543,0.8003255191929938,0.4193702368509808,0.6523577722085576,0.918165175148315,0.4499034852801199,-0.2113822059161041,0.1642675688323573,0.4748041060071082,0.007535237392483713,817.948717948718,813.1135531135532,813.919413919414,809.8901098901099,606.4102564102565,-0.033081,0.144226,0.992493,1.069183,-1.831818,-0.097198,584249.084249,130903223.443223,80356410.256410,82.197769,1,1,1,1,1,80.000000
2025-05-02 14:07:23.689,0.6271642467495021,0.05477750551663257,0.1444487950172479,1.215616652934972,0.1905401417566668,0.04494308981916782,0.4282882662391642,0.6811983176134001,0.2857403105327638,0.4194399343698527,0.583880272335543,0.5638296872588691,0.372559817613292,0.5797804128176348,0.918165175148315,0.4683821843756263,-0.1801452298827516,0.243218433394596,0.4748041060071082,0.04869671362348889,806.2637362637363,803.040293040293,785.3113553113553,784.9084249084249,821.1721611721612,-0.032104,0.142334,0.994202,0.463562,-1.435547,0.478516,591501.831502,130958827.838828,80282271.062271,82.512535,1,1,1,1,1,80.000000
2025-05-02 14:07:24.679,0.6162551734933661,0.1778958643390843,0.1444487950172479,1.060795143397043,0.4762618216608168,0.009131444293806228,0.4282882662391642,0.7395485793355494,0.5296826002476153,0.2943159587939985,0.583880272335543,0.3664198572422815,0.3783469187510718,0.63077220727418,0.918165175148315,0.4247531267397389,-0.2141000123372558,0.2367797839343119,0.4748041060071082,-0.08838351456923876,849.7802197802198,820.7692307692308,800.6227106227107,756.3003663003664,658.7912087912088,-0.035339,0.137146,0.992188,0.299072,-2.026215,0.590668,587472.527473,130626007.326007,80203296.703297,84.108978,1,1,1,1,1,80.000000
2025-05-02 14:07:25.688,0.4214535609240748,0.1195720252443804,0.1444487950172479,1.145183758798583,0.4834762328074824,0.09950894857008372,0.4282882662391642,0.7353593689470861,0.794308785851385,0.3924785635491079,0.583880272335543,0.8814439985798358,0.2785127871425184,0.659584768440831,0.918165175148315,0.4588624977691533,-0.2293707974293139,0.1656641485118147,0.4748041060071082,-0.06797464550104843,829.6336996336996,826.4102564102565,831.2454212454213,794.981684981685,636.2271062271062,-0.036682,0.137817,0.992493,0.598145,-1.562653,0.231781,583443.223443,130710622.710623,80258095.238095,83.811951,1,1,1,1,1,80.000000
2025-05-02 14:07:26.399,,,,,,,,,,,,,,,,,,,,,,,,,,,,,,,,,,,,,,,,,,/muse/elements/blink
2025-05-02 14:07:26.688,0.2364938467292381,-0.127686697460824,0.1444487950172479,1.430929465026026,0.1599666941729828,0.1600555400286389,0.4282882662391642,0.9464235419638887,0.6230928543372108,0.5083993109675031,0.583880272335543,0.8529730547034633,0.4106213165296093,0.6624971979175475,0.918165175148315,0.4365679833754142,-0.2474571542773555,0.06281048380715321,0.4748041060071082,-0.1093209108048066,780.0732600732601,801.025641025641,789.3406593406594,792.1611721611722,684.5787545787546,-0.033203,0.137024,0.997314,0.104675,-1.614990,-0.672913,589084.249084,131004761.904762,80317728.937729,81.686363,1,1,1,1,1,80.000000
2025-05-02 14:07:27.680,0.01707368563764306,-0.0915264447771813,0.8582966481798188,1.430929465026026,0.2090818896019572,0.3150854317313529,0.9460509683493444,0.9464235419638887,0.2079606330634813,0.3292271296906473,0.7124136000068328,0.8529730547034633,0.4779945115625889,0.6127524457662852,1.033760377917168,0.4365679833754142,-0.2256436627728974,0.01208523787963753,0.6608897673051768,-0.1093209108048066,848.974358974359,807.8754578754579,796.5934065934066,796.5934065934066,674.1025641025641,-0.033813,0.144165,1.002075,1.562653,-1.891632,0.381317,588278.388278,131321465.201465,80291941.391941,78.849426,1,1,1,1,1,80.000000
2025-05-02 14:07:28.691,0.5924633121801559,-0.0194130785511915,0.826551689554923,1.253237175966556,0.4997526191882802,0.1187693630167143,0.9481227565351287,1.015442880263986,0.423582177541881,0.4252886308522837,0.358891261993729,0.822062030948305,0.2728320341173545,0.5532887685184019,0.9676563792417955,0.4995023596792477,-0.1862341281019324,0.3056549704434557,0.5392331162356345,-0.127374250162431,749.8534798534798,816.7399267399268,805.4578754578755,767.1794871794872,705.934065934066,-0.036865,0.138611,0.991150,0.508423,-1.413116,0.358887,581831.501832,130699340.659341,79980879.120879,77.802231,1,1,1,1,1,80.000000
2025-05-02 14:07:29.680,0.3237514950562557,-0.1424796759358021,0.7721281054676877,1.168159796388098,0.4774503464373647,-0.4057600328706548,0.983024453971039,0.9898347625772342,0.3763183127651468,0.1760349321537897,0.2795672672572193,0.8120868697301855,0.217149570163248,0.6643080808863175,0.9329032892490519,0.4118239084744794,-0.1056777091690145,0.1910904735114201,0.5546923226265356,0.02330341051139118,768.3882783882784,807.8754578754579,793.3699633699634,755.4945054945055,691.4285714285714,-0.032349,0.143372,0.997437,0.418701,-1.772003,0.284119,588278.388278,130596996.336996,79934139.194139,79.253136,1,1,1,1,1,80.000000
2025-05-02 14:07:30.686,0.1522688231621842,-0.172828581782057,0.6172979837236502,1.102602919149243,0.2764081092110706,-0.1719142372235296,0.613890262894779,0.6856020863488451,0.6014108901808731,0.1785611164826216,0.4157672653370736,0.6004602749420664,0.2695050109545561,0.6708553123896536,0.8555114391167072,0.4074908852606427,-0.2326278535109577,0.3772776909491226,0.7563887157155986,-0.1512534068507478,833.6630036630037,819.1575091575091,826.8131868131868,781.2820512820513,568.9377289377289,-0.030945,0.137329,0.985901,0.276642,-1.443024,0.478516,585054.945055,130505934.065934,79930915.750916,81.168755,1,1,1,1,1,80.000000
2025-05-02 14:07:31.681,0.09181397792464616,0.0050895315269502,0.8269461493340728,1.227604025989009,0.2931876573273992,-0.2931059531331544,0.7617230533394541,0.5004742623477123,0.6543549881268808,-0.02484356904396969,0.5812619961687095,0.6239037416701675,0.4085471694291661,0.5859767626685282,0.8952584727343396,0.4943551692601743,-0.2958153036931123,0.3042519016412571,0.5955418559392427,-0.1119523214562122,828.8278388278388,818.3516483516484,812.7106227106227,776.4468864468864,651.5384615384615,-0.037048,0.139404,0.994751,-0.089722,-1.742096,-0.351410,582637.362637,130730769.230769,80067912.087912,82.073509,1,1,1,1,1,80.000000
2025-05-02 14:07:32.682,0.4904350774798709,-0.2348621510265864,0.8269461493340728,1.199214607870965,0.2392810346139753,-0.3234005485617582,0.7617230533394541,0.7714596962680108,0.5984563981986519,0.1727594735406093,0.5812619961687095,1.091492120570052,0.3920450030631198,0.6275715388259746,0.8952584727343396,0.7570577393242169,-0.09813020317240649,0.2050685250670242,0.5955418559392427,0.1473466665186229,794.981684981685,789.7435897435897,774.8351648351648,788.5347985347986,869.92673992674,-0.032837,0.142517,0.992188,0.291595,-2.048645,0.433655,589084.249084,130857289.377289,80081611.721612,83.348427,1,1,1,1,1,80.000000
2025-05-02 14:07:33.680,0.546183233778574,-0.4122760702649289,0.8269461493340728,1.078066628862504,0.228842810793353,-0.2055098092779611,0.7617230533394541,0.7814394078076915,0.6263228375667135,0.1087945872839224,0.5812619961687095,1.102346763072553,0.4257981658962195,0.6245625562049383,0.8952584727343396,0.5837502962265018,-0.1246565898727399,0.3595112821286691,0.5955418559392427,0.008317006076526984,827.2161172161173,819.1575091575091,822.7838827838829,791.7582417582418,551.6117216117216,-0.035950,0.141174,0.994934,1.136475,-1.600037,0.231781,585054.945055,130542197.802198,79932527.472527,85.675362,1,1,1,1,1,80.000000
2025-05-02 14:07:34.683,0.4551766890219359,0.1078452131098041,0.8269461493340728,1.121014841578638,0.00865764718993056,-0.01865473021563331,0.7617230533394541,0.8427711761693474,0.6558953639724343,0.3494402221827784,0.5812619961687095,1.146038318959447,0.3041109174755767,0.6250416688151615,0.8952584727343396,0.4528592091270883,-0.1549204732684719,0.2862825182152043,0.5955418559392427,0.01179009666534413,829.2307692307693,807.0695970695971,798.6080586080586,793.3699633699634,1083.076923076923,-0.031799,0.141052,0.999207,0.246735,-1.674805,0.014954,583443.223443,130810549.450549,80038901.098901,85.446342,1,1,1,1,1,80.000000
2025-05-02 14:07:35.683,0.3816596398825094,0.1373690843770839,0.2047488153823902,1.368993689850371,-0.01275627919491081,-0.1617160295989915,-0.1081189672260613,0.8582719698655924,0.4339737124189834,0.3252787818216458,0.4749090841694724,0.9887746708264196,0.1109115902076269,0.6230676475406091,0.9037184565199967,0.5129393621099396,-0.03503912588214855,0.2291040149079306,0.3983816875758202,0.07108804150757476,790.1465201465202,798.6080586080586,791.7582417582418,796.996336996337,639.4505494505495,-0.029846,0.140503,0.996643,-0.231781,-1.114044,-0.366364,588278.388278,130705787.545788,79956703.296703,83.039871,1,1,1,1,1,80.000000
2025-05-02 14:07:36.680,-0.02632833650507153,-0.05220119646906458,0.2047488153823902,1.496902917208399,0.1193950724270956,-0.4206182438804631,-0.1081189672260613,0.9791503418013092,0.3988430638412709,0.312837735956252,0.4749090841694724,0.5802083757464158,0.3722405428604852,0.6340154625459418,0.9037184565199967,0.5773817102738434,-0.2635403591385897,0.2977855636609483,0.3983816875758202,0.1182913499059753,823.1868131868132,809.0842490842491,799.8168498168499,782.893772893773,602.7838827838827,-0.035583,0.144409,0.994812,0.209351,-1.390686,0.291595,606813.186813,130775091.575092,80022783.882784,82.052467,1,1,1,1,1,80.000000
2025-05-02 14:07:37.680,0.4842132138662025,-0.1212808589973107,0.2047488153823902,1.513853257440093,0.2617640463675232,-0.5086605565685652,-0.1081189672260613,0.7755781172812757,0.6508423654309131,0.3125304717655113,0.4749090841694724,1.096660402481835,0.3191910083999716,0.5550063349342683,0.9037184565199967,0.4467552764590902,-0.2340154821885085,0.3692653829438314,0.3983816875758202,0.06652306904774073,840.9157509157509,812.7106227106227,801.8315018315019,801.4285714285714,767.5824175824176,-0.032471,0.143799,1.003479,1.345825,-2.287903,0.471039,585054.945055,131027326.007326,80012307.692308,83.751877,1,1,1,1,1,80.000000
2025-05-02 14:07:38.680,0.7035245986500583,-0.1517783001445275,0.2047488153823902,1.340619256914223,0.360188273430698,-0.4000648043337239,-0.1081189672260613,0.6855884087092979,0.5846967354905241,0.3037062625143152,0.4749090841694724,1.176828513522556,0.2397399639366602,0.4587325765799609,0.9037184565199967,0.3523038983974214,-0.1055796066358222,0.3496763290840754,0.3983816875758202,-0.1762749769601026,768.7912087912088,801.8315018315019,770.4029304029305,796.996336996337,735.3479853479854,-0.033142,0.140442,0.997864,1.091614,-1.914062,0.179443,590695.970696,130774285.714286,79936556.776557,84.993896,1,1,1,1,1,80.000000
2025-05-02 14:07:39.680,0.5010563188296081,0.1210239461148221,-0.02927237491227525,1.149899979399214,0.3565268169375074,-0.1459209843758259,0.09458820482204448,0.5285678730204038,0.3501736519693787,0.2825358964648685,0.3268601738345567,0.7312870170367033,0.2467738617813038,0.5908275927810548,0.8913528862554628,0.3578389220007162,-0.2810459238669517,0.3160557173910365,0.5220904291571679,-0.2552601383726333,837.6923076923077,824.7985347985348,822.7838827838829,783.6996336996338,584.6520146520147,-0.024902,0.137817,0.998108,-0.254211,-1.600037,0.044861,589084.249084,130947545.787546,79975238.095238,83.924210,1,1,1,1,1,80.000000
2025-05-02 14:07:40.680,0.2147179550167918,0.09356990682958399,-0.101109413456936,0.8935534402623488,0.36973074687533,-0.2766968617019019,0.02125473210217881,0.5706518986161737,0.5157440547112191,0.3011696238622772,0.2890871830532825,1.011743517535923,0.3548426283832762,0.535919880303286,0.860286645707193,0.5393704285593731,-0.184328713046556,0.2256362112930692,0.4863902872587765,-0.207459075973155,828.021978021978,817.948717948718,816.7399267399268,810.6959706959707,628.974358974359,-0.024231,0.135864,0.999451,0.059814,-0.934601,-0.396271,589084.249084,130443076.923077,79762490.842491,83.746544,1,1,1,1,1,80.000000
2025-05-02 14:07:41.680,0.1993599833300643,0.1735125203267929,0.4074473260888303,0.8082823207824182,0.2416659845868062,-0.1504431065450698,0.5025607322378084,0.8149483670991545,0.6136343006872059,0.2956525624003175,0.4814148039189207,1.013891424075654,0.3662045564710897,0.5676332276546976,0.9298261487302536,0.5279230617663031,-0.2704216708307227,0.3115060436762938,0.2659821414878992,-0.09473857446813605,791.3553113553114,805.8608058608058,780.8791208791209,776.8498168498169,669.6703296703297,-0.025269,0.138550,0.996704,0.239258,-1.652374,-0.097198,589084.249084,130385054.945055,79838241.758242,84.980804,1,1,1,1,1,80.000000
2025-05-02 14:07:42.680,0.297571052068018,0.2315136261324562,0.5756341594440981,0.5737258122954233,0.2618053221319985,-0.1726668643052857,0.4976632550750144,0.4185302920622422,0.4077762233007401,0.1812622430339917,0.4493014104799526,0.8274400892124046,0.3330629028466577,0.6146011598137584,0.9585723571546414,0.1718662126967686,-0.1807588224357642,0.2729440320013748,0.3647159214917813,-0.164263495880043,842.5274725274726,836.0805860805862,833.6630036630037,803.040293040293,559.2673992673992,-0.025757,0.137207,0.988098,-0.029907,-2.108459,0.508423,588278.388278,130687252.747253,79936556.776557,84.938835,1,1,1,1,1,80.000000
2025-05-02 14:07:43.680,0.4435913067747846,0.0407803966871098,0.2741580901656283,0.9451795502955259,0.3544693015119945,-0.3087615570535505,0.2014682698164993,0.5970905291607189,0.4861076761091402,0.293176791119525,0.2404786614649652,0.8508229398779689,0.3980760995644829,0.5305003684878653,0.8193475989258957,0.4100196033477065,0.01366619032214342,0.2355910252002327,0.5268552234499382,-0.04053694442811582,826.4102564102565,818.7545787545788,801.4285714285714,790.952380952381,606.4102564102565,-0.024231,0.144165,0.996277,0.822449,-2.026215,0.134583,587472.527473,130626813.186813,79883369.963370,83.637733,1,1,1,1,1,80.000000
2025-05-02 14:07:44.680,0.2864458159344009,-0.00637686906156595,0.08830415207742652,1.19423134787642,0.2285119341142633,-0.2063511335859396,0.6129741525576516,0.6856926216678019,0.5004615756552268,0.3842392983597134,0.5501912026666178,0.6073950306093767,0.363091924238956,0.643045483110243,0.8611649123305912,0.5018000227118306,-0.1139991580309597,0.2443934030548319,0.4149563712609652,-0.09141342086559293,763.956043956044,804.2490842490843,768.7912087912088,825.2014652014652,724.0659340659341,-0.028748,0.139038,0.999084,1.876678,-1.884155,0.239258,592307.692308,130940293.040293,79897069.597070,83.559952,1,1,1,1,1,80.000000
2025-05-02 14:07:45.679,0.3124465615966111,-0.01873253608363263,0.5252138713986726,1.242023025774517,0.4030627197065967,-0.2431353127564195,0.5790499111886815,0.8773187555577293,0.7949929837773292,0.4651707677622406,0.7445571235522938,0.600202607989283,0.3549577783614866,0.6588460041860718,0.8722094782221541,0.4130156466477515,-0.2223211786558221,0.3300233762546868,0.7232079477975254,-0.05639264243284305,845.3479853479854,822.7838827838829,825.6043956043957,787.7289377289378,509.7069597069597,-0.029358,0.138367,0.998779,1.106567,-1.884155,0.314026,586666.666667,130534945.054945,79739120.879121,85.612885,1,1,1,1,1,80.000000
2025-05-02 14:07:46.679,0.114509716758481,0.04789213636220001,0.6622080190863988,1.242023025774517,0.4308326361628609,-0.1026692248073073,0.5083855802824421,0.8773187555577293,0.7663203665208727,0.4146216853907759,0.6474225128734319,0.600202607989283,0.2067203191752475,0.5909837681720367,0.8326719571277318,0.4130156466477515,-0.2339552558206974,0.1787517060886447,0.5153501877226881,-0.05639264243284305,833.6630036630037,815.934065934066,807.4725274725275,790.952380952381,720.8424908424909,-0.025208,0.138000,1.002686,1.472931,-2.190704,0.343933,585054.945055,130785567.765568,79831794.871795,86.904076,1,1,1,1,1,80.000000
2025-05-02 14:07:47.679,0.2447711870408705,0.1240258236615991,0.8259742917964912,0.9579894614485424,0.2902197966959907,0.1218922546344368,0.5452016409028686,0.7616699983002476,0.6663448024407878,0.4761800051682868,0.4088262563277653,0.6386079555254972,0.2484118574474138,0.565262979676508,0.8593439468402306,0.3449091182032921,-0.1581168043108678,0.2076845707789531,0.3251819421937729,-0.01369977707975485,790.1465201465202,804.2490842490843,770.8058608058608,796.5934065934066,651.5384615384615,-0.025024,0.136169,0.995911,0.919647,-2.168274,0.007477,590695.970696,130398754.578755,79739120.879121,87.515259,1,1,1,1,1,80.000000
2025-05-02 14:07:48.681,0.3892668998315172,0.2026309987687606,0.8259742917964912,1.090364832608378,0.02318054637513197,-0.04538781007638829,0.5452016409028686,0.5831160731870917,0.417424690348551,0.3785812181813292,0.4088262563277653,0.6163418603084125,0.2534264624659837,0.628365444022747,0.8593439468402306,0.4428519883318008,-0.1420098728796607,0.3922109502537842,0.3251819421937729,0.01499927412300127,835.2747252747253,819.96336996337,818.3516483516484,813.919413919414,571.3553113553114,-0.024841,0.137329,0.992615,0.889740,-1.943970,-0.254211,589890.109890,130479340.659341,79799560.439560,88.033394,1,1,1,1,1,80.000000
2025-05-02 14:07:49.681,0.4777801810489881,0.208964584928771,0.8259742917964912,1.045704140454084,0.08623974662080501,-0.4755330282652819,0.5452016409028686,0.5484761721547656,0.3838281626249161,0.2829505399619837,0.4088262563277653,0.2313224983182197,0.1642029186661185,0.5818976931023051,0.8593439468402306,0.2564303829661884,-0.2626731998402919,0.427043461715769,0.3251819421937729,-0.1440977629052117,834.4688644688645,807.4725274725275,797.3992673992674,809.0842490842491,753.4798534798535,-0.021301,0.136475,0.999512,0.583191,-0.912170,-0.680389,584249.084249,130319780.219780,79717362.637363,89.899773,1,1,1,1,1,80.000000
2025-05-02 14:07:50.682,0.3252426298059942,0.337270864914936,0.8259742917964912,1.076473170563145,0.1637065141443384,-0.1657026142541352,0.5452016409028686,0.8192465568819017,0.4708230795427494,0.3407467955748319,0.4088262563277653,0.5759185540005414,0.1011676276965812,0.5797650547015689,0.8593439468402306,0.1899800445867878,-0.2104626691437639,0.2144735274070161,0.3251819421937729,-0.518529251832356,788.5347985347986,807.4725274725275,796.996336996337,789.3406593406594,653.956043956044,-0.025635,0.142456,0.996216,0.643005,-1.286011,0.067291,592307.692308,130565567.765568,79765714.285714,88.939308,1,1,1,1,1,80.000000
2025-05-02 14:07:51.680,0.5987106446767131,0.5743621559992738,0.8259742917964912,1.071956517543661,0.2423696150770502,0.2382179688338489,0.5452016409028686,0.6510751837120166,0.4430869112557437,0.4492882225578771,0.4088262563277653,0.5908024721453329,0.1489119630199521,0.6446394502782957,0.8593439468402306,0.1246145520390892,-0.1800383166450797,0.2092696679545339,0.3251819421937729,-0.3162080490680098,830.4395604395604,842.1245421245421,845.3479853479854,787.3260073260074,686.1904761904763,-0.032959,0.134949,0.996338,-0.321503,-1.233673,-0.082245,592307.692308,130969304.029304,79821318.681319,85.319450,1,1,1,1,1,80.000000
2025-05-02 14:07:52.680,0.7251740052084766,0.8921841265387395,0.8259742917964912,1.182919387155303,0.2799400063578333,0.515373168630141,0.5452016409028686,0.6083498262668385,0.4536006254059244,0.3189863526785601,0.4088262563277653,0.5112155090042199,0.3030077106495546,0.5970181280499069,0.8593439468402306,0.2194606079542205,-0.1449346397639128,0.2534824826034712,0.3251819421937729,-0.218348764984151,836.0805860805862,807.0695970695971,809.8901098901099,763.956043956044,673.6996336996338,-0.025574,0.138184,0.994263,0.351410,-1.069183,-1.061707,587472.527473,130373772.893773,79552161.172161,82.212746,1,1,1,1,1,80.000000
2025-05-02 14:07:53.680,0.4442749199205288,0.7051557146871493,0.8259742917964912,1.310160100198759,0.5349028262323149,0.4022674472938556,0.5452016409028686,0.6554649823185327,0.4758898862504256,0.6042987426299055,0.4088262563277653,0.4269107668369455,0.101173047463702,0.5931132164198615,0.8593439468402306,0.3661757819730853,-0.1677361294640481,0.2111958174165225,0.3251819421937729,-0.2485486204656776,784.1025641025641,793.7728937728938,791.3553113553114,790.5494505494506,755.8974358974359,-0.027649,0.142212,0.997437,0.456085,-1.614990,0.201874,591501.831502,130338315.018315,79575531.135531,82.131973,1,1,1,1,1,80.000000
2025-05-02 14:07:54.680,0.6004122104926987,0.4360627834078001,0.8259742917964912,1.183646805809193,0.6351040503741807,0.261623137259679,0.5452016409028686,0.7243294946825035,0.6222610271952265,0.5111663802957259,0.4088262563277653,0.5820522080500576,0.1646221376737519,0.6219889265251846,0.8593439468402306,0.1544389136568441,-0.3727342279461614,0.2703657703401752,0.3251819421937729,-0.30112911652427,823.992673992674,823.1868131868132,840.9157509157509,794.1758241758242,608.8278388278388,-0.025208,0.142090,0.991516,0.067291,-2.534637,0.770111,590695.970696,130789597.069597,79689963.369963,81.641869,1,1,1,1,1,80.000000
2025-05-02 14:07:55.680,0.6423848052102079,0.1592663921271519,0.8259742917964912,1.256597590446892,0.3882000670795416,-0.0680788243518201,0.5452016409028686,0.6003626891340205,0.6093881701990806,0.3607833578444344,0.4088262563277653,0.7700518986980466,0.2082794081139558,0.4691801114680436,0.8593439468402306,0.2644103269827385,-0.2412753761342067,0.3421994702752038,0.3251819421937729,-0.237235644471395,819.96336996337,811.9047619047619,801.025641025641,788.5347985347986,761.1355311355312,-0.030090,0.141541,0.998657,1.016846,-1.607513,0.583191,587472.527473,130650989.010989,79572307.692308,81.431587,1,1,1,1,1,80.000000
2025-05-02 14:07:56.679,0.5366925144125212,0.5357183040716692,0.1528578679592001,1.1895184263508,0.06614017580344082,0.1280430434335859,0.4015758788167916,0.4437345620373532,0.8392609219527215,0.3359033509701777,0.2354306649454504,0.7515218260054729,0.3280930694021308,0.3459972651039754,0.8504777040361267,0.396934883401458,-0.2939979923613282,0.3423491079571409,0.3883559312097288,-0.2565105587660981,778.0586080586081,820.7692307692308,803.8461538461539,783.2967032967033,633.0036630036631,-0.033875,0.138000,0.997009,0.201874,-1.173859,-0.014954,594725.274725,130624395.604396,79561025.641026,82.352852,1,1,1,1,1,80.000000
2025-05-02 14:07:57.680,0.4778003784453291,0.7131334666134949,0.1310189682587717,0.5795013773841107,0.3707380598263092,0.5436737531848708,0.4348603195162063,0.4062207589576447,0.8334597022618149,0.4342916362876154,0.1963886109973356,0.5831974182142793,0.4735953976679833,0.4241964772806789,0.8011105876790349,0.4619404121641689,-0.1555309100313097,0.1917039581710458,0.3440170415148876,-0.2821191833925482,828.021978021978,822.7838827838829,845.3479853479854,788.5347985347986,583.4432234432235,-0.019531,0.136597,0.991943,0.314026,-0.957031,0.082245,589890.109890,130062710.622711,79438534.798535,85.047806,1,1,1,1,1,80.000000
2025-05-02 14:07:58.680,0.4039986751203797,0.5324135274769473,0.419222913406693,1.16257565908223,0.4401254236820206,0.3337504996122341,0.5826594109307418,0.549160706493111,0.2617833405733619,0.4436946947230366,0.6574651571162476,0.6026963729583226,0.4149191021592321,0.5310364712185698,0.8111868132278207,0.320083158925485,-0.1327842658445924,0.1836952618696648,0.550183179251748,-0.3166683534497309,826.8131868131868,799.8168498168499,791.7582417582418,812.7106227106227,810.6959706959707,-0.029236,0.141602,0.992920,0.149536,-1.375732,-0.687866,588278.388278,130385860.805861,79575531.135531,86.395271,1,1,1,1,1,80.000000
2025-05-02 14:07:59.679,0.5466912348595274,0.2163253458624464,0.5715716712412874,1.010614079683373,0.43519139983293,0.1745734187990903,0.5629024116462434,0.4526025602371161,0.4043285330703318,0.4268996692716653,0.7048887626702205,0.6458457438651204,0.3208104791445993,0.6043712886280228,0.7261205958607053,0.08694267471749502,-0.291783871032769,0.3417787542673245,0.6186520889692265,-0.2926955819222619,782.0879120879121,790.1465201465202,801.8315018315019,787.3260073260074,674.5054945054945,-0.026855,0.139160,0.994629,0.351410,-1.016846,-1.315918,593113.553114,130448717.948718,79625494.505495,84.737961,1,1,1,1,1,80.000000
2025-05-02 14:08:00.680,0.4982447029545084,0.5708654905306464,0.4746605912267097,1.104500276811067,0.3333042944745795,0.2090679232380491,0.5769560005927176,0.646238350125603,0.6057682269216582,0.3551521131149493,0.6193897805893235,0.8694226999312523,0.2937509713812041,0.5870186821002782,0.8296090141178091,0.3795966933376382,-0.3606217857625503,0.2658011513970333,0.5354871485719761,-0.03667216610304649,834.0659340659341,811.9047619047619,823.992673992674,783.2967032967033,693.4432234432235,-0.020081,0.140381,0.995361,0.957031,-1.779480,0.029907,589890.109890,130408424.908425,79513479.853480,83.371956,1,1,1,1,1,80.000000
2025-05-02 14:08:01.680,0.2306269873186463,0.00780663438449648,0.4830683624186219,1.092140786702169,0.08502918230426734,-0.1976958979803937,0.5894281228902165,0.8213275084234346,0.5987449524445511,0.1308873716738023,0.6188170598473588,0.9279998056466012,0.3040084292771127,0.5222434781446498,0.8617875408201069,0.4743832405235064,-0.3772609280576753,0.09457301043960181,0.4426933582387323,-0.2965653315329711,792.1611721611722,809.4871794871796,804.2490842490843,805.0549450549451,689.4139194139194,-0.026978,0.138428,0.990723,0.216827,-1.383209,-0.336456,588278.388278,130766227.106227,79633553.113553,85.043732,1,1,1,1,1,80.000000
2025-05-02 14:08:02.680,1.417003983357304,-0.2207736585546363,0.4595783164229967,0.9101116806148871,0.9686206634774386,0.03423583906382014,0.4021407970890183,0.7133676134638181,0.7354330801259742,0.1499144105397152,0.6042173639427668,0.8020569892106143,0.8982502392355152,0.4795353008353705,0.8370349288830107,0.3719585889407495,0.05010353259324674,0.2435327169873362,0.5482909775597969,-0.2021125395360387,738.974358974359,807.8754578754579,794.1758241758242,776.8498168498169,588.2783882783883,-0.029785,0.138062,0.994873,0.680389,-1.525269,0.299072,593113.553114,130464835.164835,79471575.091575,86.280045,1,1,1,1,1,80.000000
2025-05-02 14:08:03.686,1.528207372450886,-0.1217960162064426,0.5162708683459598,0.8527813257818059,1.513824809534803,-0.08877418469063937,0.3458082730150761,0.4380818063998773,1.329344355598755,0.01274915947141726,0.6191184544137132,0.5150327005596466,0.8960098682311869,0.4410185480528687,0.7842370783116692,0.2722881913654042,0.08486280066971172,0.4234338765887308,0.6188001356179363,-0.3329293537877225,819.96336996337,836.8864468864469,828.021978021978,804.2490842490843,817.5457875457876,-0.027100,0.145325,0.995056,0.112152,-1.293488,0.261688,589084.249084,130446300.366300,79467545.787546,85.356918,1,1,1,1,1,80.000000
2025-05-02 14:08:04.679,1.386826046658603,0.1069494746113056,0.5282416239394614,1.056845935915521,1.604405422691843,-0.7444909719186694,0.4323744940155024,0.7153914216585221,1.313457451969331,-0.1626309133724996,0.3144878163682921,0.8969235814537836,0.7784887916901411,0.4664861859481151,0.7698109929971522,0.3184540718816383,0.2092306249679029,0.4601795844185261,0.4321221366681942,-0.2360446749505076,805.0549450549451,789.7435897435897,794.981684981685,812.3076923076924,663.2234432234433,-0.020142,0.145142,0.999817,0.336456,-1.106567,-1.271057,585860.805861,129984542.124542,79332967.032967,84.267677,1,1,1,1,1,80.000000
2025-05-02 14:08:05.680,1.010109552138234,0.1069494746113056,0.1669327611008073,1.333665827953275,0.8325962130332539,-0.7444909719186694,0.3097669252860771,1.058765829207357,1.262866897224084,-0.1626309133724996,0.2085737682255372,0.9284459734924779,0.6890125453906699,0.4664861859481151,0.734213120858915,0.4570291174264525,0.1254597153557402,0.4601795844185261,0.3702137103845224,-0.2964012066538804,738.1684981684982,791.3553113553114,772.4175824175825,769.5970695970697,786.9230769230769,-0.018799,0.147461,0.997498,0.672913,-1.652374,0.201874,593113.553114,130208571.428571,79489304.029304,85.150528,1,1,1,1,1,80.000000
2025-05-02 14:08:06.679,1.247650604730417,0.4918016012502888,-0.07348698703378495,1.27766746818329,1.151236418614802,0.2127017762621279,0.1677263834922328,0.8806420316838078,1.396463627638984,0.01027263232991833,0.1143057668043462,0.8098107308814798,0.7654250295970804,0.5503363289661042,0.7473455457302801,0.3999389720051293,0.1481214648058324,0.5327732845354831,0.4461187456425654,-0.1305496656855531,796.996336996337,830.8424908424909,828.8278388278388,813.1135531135532,614.8717948717949,-0.032104,0.143494,0.988403,0.306549,-0.792542,-0.403748,591501.831502,130666300.366300,79683516.483516,85.524544,1,1,1,1,1,80.000000
2025-05-02 14:08:07.681,1.378363683336294,0.4035575976773857,-0.07348698703378495,1.144752140687521,1.268034590785747,0.108247039555102,0.1677263834922328,0.5977463603246723,1.338291220194176,0.01401862540007003,0.1143057668043462,0.8124057408912769,0.7979536078060356,0.5240575767547264,0.7473455457302801,0.2833614538639912,0.1989838975125462,0.4306286651360551,0.4461187456425654,-0.1780572995871683,723.2600732600732,859.4505494505495,807.4725274725275,739.3772893772893,709.5604395604396,-0.026978,0.144897,0.992432,1.024323,-1.480408,0.530853,586666.666667,130554285.714286,79633553.113553,83.744179,1,1,1,1,1,80.000000
2025-05-02 14:08:08.011,,,,,,,,,,,,,,,,,,,,,,,,,,,,,,,,,,,,,,,,,,/muse/elements/blink
2025-05-02 14:08:08.679,1.627550242409755,0.3248474544054801,-0.07348698703378495,1.123750822441301,1.210453235690891,-0.01500604253542531,0.1677263834922328,0.5081006750454681,1.027217756920346,-0.09461854088295818,0.1143057668043462,0.6829865593689411,0.6573975872145341,0.5033033889334328,0.7473455457302801,0.2564830134586401,0.0149395843165811,0.3076658004218276,0.4461187456425654,-0.3708477956863787,761.5384615384615,927.5457875457876,790.1465201465202,796.5934065934066,613.6630036630037,-0.024292,0.146729,0.994629,0.463562,-1.592560,-0.672913,590695.970696,130426153.846154,79508644.688645,82.048660,1,1,1,1,1,80.000000
2025-05-02 14:08:09.680,1.473263521995259,0.3248474544054801,-0.07348698703378495,1.137410500875337,1.183018270830967,-0.01500604253542531,0.1677263834922328,0.6988287538516823,1.318073579738732,-0.09461854088295818,0.1143057668043462,0.8829630546524498,0.7288540981622381,0.5033033889334328,0.7473455457302801,0.5337011100073566,-0.03330596802444061,0.3076658004218276,0.4461187456425654,-0.3720412617036771,821.1721611721612,779.2673992673992,827.6190476190476,819.5604395604396,606.007326007326,-0.022034,0.148315,1.001160,0.373840,-0.702820,-1.405640,586666.666667,130103003.663004,79326520.146520,83.007362,1,1,1,1,1,80.000000
2025-05-02 14:08:10.679,1.295408213178221,0.3248474544054801,-0.07348698703378495,1.295182195137836,1.130800899057957,-0.01500604253542531,0.1677263834922328,0.6386193745015679,1.289673211412789,-0.09461854088295818,0.1143057668043462,0.903054308774887,0.7315608091926727,0.5033033889334328,0.7473455457302801,0.4075942334084272,0.1004243819835112,0.3076658004218276,0.4461187456425654,-0.3314710633972984,692.2344322344322,800.6227106227107,770,764.3589743589744,883.6263736263736,-0.025696,0.148560,0.993835,0.418701,-1.682281,-0.358887,585860.805861,130398754.578755,79485274.725275,84.402122,1,1,1,1,1,80.000000
2025-05-02 14:08:11.680,1.04915631787147,0.3248474544054801,-0.07348698703378495,1.148982102583269,1.238937252938967,-0.01500604253542531,0.1677263834922328,0.749437475796096,1.240827801197618,-0.09461854088295818,0.1143057668043462,1.007263531093092,0.7766878931794295,0.5033033889334328,0.7473455457302801,0.4353163785857871,0.1969521569069299,0.3076658004218276,0.4461187456425654,-0.2724385650233718,773.6263736263736,716.007326007326,766.7765567765568,801.025641025641,661.6117216117216,-0.022766,0.150146,0.992432,0.029907,-0.979462,-0.037384,589890.109890,130281904.761905,79461098.901099,84.823799,1,1,1,1,1,80.000000
2025-05-02 14:08:12.680,1.139608570255368,0.3248474544054801,-0.07348698703378495,1.282253403343019,1.038531991699789,-0.01500604253542531,0.1677263834922328,1.064791261279569,1.050304749257632,-0.09461854088295818,0.1143057668043462,0.9833251020193815,0.7109001064458218,0.5033033889334328,0.7473455457302801,0.4367407468287979,0.02947966830315018,0.3076658004218276,0.4461187456425654,-0.1582041657652473,811.0989010989011,846.5567765567765,821.978021978022,752.2710622710623,715.2014652014652,-0.018311,0.151245,0.994812,-0.052338,-1.084137,-0.067291,587472.527473,130339120.879121,79452234.432234,85.997108,1,1,1,1,1,80.000000
2025-05-02 14:08:13.680,1.157475769557239,0.3248474544054801,0.5094955236745966,1.20890299652181,1.028799074142082,-0.01500604253542531,0.5515147267072019,1.004413668484402,1.235084338413889,-0.09461854088295818,0.8419508261964667,0.8837146633542139,0.5846996670046289,0.5033033889334328,0.7308832044822304,0.3384495567500383,-0.02563005961468388,0.3076658004218276,0.6775227341585958,-0.1335884934319616,814.7252747252747,790.1465201465202,799.0109890109891,783.2967032967033,660,-0.017944,0.148499,1.000977,0.216827,-0.717773,-0.792542,584249.084249,129705714.285714,79282197.802198,89.089363,1,1,1,1,1,80.000000
2025-05-02 14:08:14.680,1.401500985799067,0.3248474544054801,0.5752808327986095,1.216373091871011,1.028981496582655,-0.01500604253542531,0.7368771725904762,0.8238158047974021,1.263458646686471,-0.09461854088295818,0.8419508261964667,0.9391207567325341,0.58109091470413,0.5033033889334328,0.7781725007033345,0.353360801369391,0.0774326770465323,0.3076658004218276,0.7080608270623769,-0.07672309220790902,770.4029304029305,818.7545787545788,801.4285714285714,768.7912087912088,592.7106227106227,-0.024414,0.150024,0.992493,0.478516,-1.629944,-0.538330,586666.666667,129629963.369963,79384542.124542,91.466995,1,1,1,1,1,80.000000
2025-05-02 14:08:15.232,,,,,,,,,,,,,,,,,,,,,,,,,,,,,,,,,,,,,,,,,,/muse/elements/blink
2025-05-02 14:08:15.679,1.306512112361151,0.3248474544054801,0.5752808327986095,1.337781038605829,0.6207700126271406,-0.01500604253542531,0.7368771725904762,0.9117176700700803,0.5846356854501603,-0.09461854088295818,0.8419508261964667,0.6615468061501649,0.4353383305957003,0.5033033889334328,0.7781725007033345,0.3619618919163458,0.164405078636756,0.3076658004218276,0.7080608270623769,-0.05900339918636099,785.3113553113553,825.2014652014652,823.1868131868132,769.5970695970697,700.6959706959707,-0.023193,0.150879,0.998657,0.246735,-1.166382,-0.792542,585054.945055,129614652.014652,79507032.967033,90.781616,1,1,1,1,1,80.000000
2025-05-02 14:08:16.679,1.306512112361151,0.3248474544054801,0.5752808327986095,1.357951993165518,0.6207700126271406,-0.01500604253542531,0.7368771725904762,1.026714705526318,0.5846356854501603,-0.09461854088295818,0.8419508261964667,0.3645347138181788,0.4353383305957003,0.5033033889334328,0.7781725007033345,0.4045029671397307,0.164405078636756,0.3076658004218276,0.7080608270623769,-0.05083616508818147,786.5201465201466,803.8461538461539,782.893772893773,799.0109890109891,712.3809523809524,-0.027222,0.147217,0.994263,0.209351,-1.360779,-0.448608,583443.223443,129804029.304029,79578754.578755,88.871567,1,1,1,1,1,80.000000
2025-05-02 14:08:17.680,1.413271174170856,0.006917714689706913,0.7569485440159484,1.295659493617071,1.27445660681988,0.09924536080257067,0.3493052683513265,0.7980886830023131,0.8818606751444465,0.5002801717744353,0.5524060884642071,0.7401617194206254,0.6270519286668033,0.5774228132418971,0.9334292666143843,0.1687559480653082,-0.2703183658138607,0.3463306492014712,0.5671660345751099,-0.2108982893188355,750.2564102564103,811.0989010989011,797.3992673992674,803.040293040293,589.0842490842491,-0.017456,0.148315,0.986145,0.157013,-1.884155,-0.366364,588278.388278,129873333.333333,79631135.531136,88.994659,1,1,1,1,1,80.000000
2025-05-02 14:08:18.679,1.334574675411361,-0.1451848979513942,0.6817145844268445,1.22759238335448,1.27538743780128,0.08331688443154538,0.4348663603850599,0.8029362501479874,0.9915255043853586,0.3567248066601481,0.6212480425345153,0.8232373455196837,0.5959676079607172,0.5874211023921307,0.9156792924952664,0.4352204307230718,-0.3184588419051649,0.2486172565852581,0.3368234954486151,-0.1738189156853343,819.96336996337,816.3369963369963,818.3516483516484,783.6996336996338,604.3956043956044,-0.022705,0.151367,0.995667,0.433655,-1.480408,0.067291,587472.527473,129800805.860806,79624688.644689,88.892036,1,1,1,1,1,80.000000
2025-05-02 14:08:19.680,0.9467244561665269,-0.2689139830660308,0.3493649693508799,1.339187840977321,1.068688132840018,-0.02537728354474349,0.4202973244514128,0.8060036307416832,0.8916345909714412,0.3355866231756406,0.7473354269256415,1.108438024896947,0.6251228111280357,0.5845244918043626,0.8631816292304119,0.6762499692140673,-0.1614921213167078,0.1687885849929658,0.3948641638576944,-0.08637171905883406,813.5164835164835,796.5934065934066,798.2051282051282,811.9047619047619,713.5897435897436,-0.023682,0.143860,0.988281,0.732727,-1.039276,0.643005,583443.223443,129686373.626374,79570695.970696,87.922241,1,1,1,1,1,80.000000
2025-05-02 14:08:20.680,1.037951026890347,-0.0442593278192016,0.5980836187701577,1.171881075069397,0.8498928346406733,-0.09943196692089953,0.2740659211181057,0.7526799259055272,1.038905644410154,0.2379177864195641,0.646613806646352,1.042774256153515,0.625405311352117,0.5040988263376366,0.773237870571208,0.5751714759961216,0.08709332647881184,0.2682489684495051,0.4654123444571423,-0.1171818476625346,770,816.3369963369963,811.5018315018315,796.1904761904763,558.0586080586081,-0.027710,0.145996,0.999329,-0.029907,-1.203766,0.029907,588278.388278,129856410.256410,79669010.989011,89.124527,1,1,1,1,1,80.000000
2025-05-02 14:08:21.679,0.9299142762429842,0.04908982091549687,0.5086981657293247,0.7323858330554593,0.89306499610159,-0.1023978441143025,0.1137670155090559,0.5518246696157147,1.088179215797614,0.5085310109772009,0.7841841653198885,0.8447060391814303,0.5035055073542438,0.5167635650819965,0.8199115804056312,0.5916162998866197,0.03080071353192275,0.273619383261702,0.6332847879559735,-0.2587894611304022,804.6520146520147,807.0695970695971,809.8901098901099,758.3150183150184,660.4029304029305,-0.021667,0.146057,0.992981,1.009369,-1.076660,0.433655,585860.805861,129689597.069597,79605347.985348,92.778008,1,1,1,1,1,80.000000
2025-05-02 14:08:22.680,1.105625544589168,-0.01981250848676558,0.3061031592928142,0.9600592286091968,0.9334715514204683,-0.05340605671151877,0.2181412560189041,0.5493019516555098,1.098001932840359,0.5701928055675604,0.6458473072694779,0.8371127249244874,0.508931623528141,0.5613144758743204,0.7692138513422697,0.6576221223604044,-0.007077700847550232,0.2556199045610143,0.5575328937965855,-0.1873112817935443,814.7252747252747,808.2783882783883,799.8168498168499,757.9120879120879,739.7802197802198,-0.022095,0.145020,0.992065,0.314026,-1.727142,-0.515900,582637.362637,129683956.043956,79596483.516484,93.604263,1,1,1,1,1,80.000000
2025-05-02 14:08:23.572,,,,,,,,,,,,,,,,,,,,,,,,,,,,,,,,,,,,,,,,,,/muse/elements/blink
2025-05-02 14:08:23.679,0.9856469472658317,0.003318471098732147,0.4775493807567825,1.361120129648697,0.6999257110176118,-0.2588532827173539,0.2106696844813786,0.7617698005277576,0.7071336626138924,0.01090141726834758,0.5929434977997924,0.5956636431482574,0.6416156427421458,0.5432465110652012,0.8320511253726661,0.4222539259804713,-0.01362832059600443,0.2761117602380851,0.5662966702491319,-0.217985830885245,794.5787545787546,799.0109890109891,784.1025641025641,832.0512820512821,534.2857142857143,-0.024719,0.147217,0.989990,0.209351,-2.190704,0.067291,588278.388278,129663809.523810,79726227.106227,91.307343,1,1,1,1,1,80.000000
2025-05-02 14:08:24.683,0.7443334505071353,-0.01463974632087889,0.4396928645899957,1.361120129648697,0.6688397210481126,-0.4726660066698927,0.09468949136345466,0.7617698005277576,0.4485388893796442,-0.177804167134139,0.3435628425409158,0.5956636431482574,0.6637246689721413,0.5146023119685448,0.8210857353327173,0.4222539259804713,-0.09531066616433362,0.2137721110278416,0.4687159595279257,-0.217985830885245,852.6007326007326,817.5457875457876,825.2014652014652,788.5347985347986,666.4468864468864,-0.020081,0.147400,0.997681,0.942078,-1.831818,-0.097198,585860.805861,129414798.534799,79810842.490842,88.647781,1,1,1,1,1,80.000000
2025-05-02 14:08:25.687,0.9096120583844223,-0.1330423043696331,0.4396928645899957,1.337170440527223,0.6908300166522497,-0.02006467382759915,0.09468949136345466,0.7604815258015025,0.6028421396109883,0.1847995348728069,0.3435628425409158,0.8335744791078957,0.550797061359627,0.5658025025795228,0.8210857353327173,0.5272449161080767,-0.1397954500915093,0.2421965212038682,0.4687159595279257,0.01925001204267862,762.7472527472528,801.8315018315019,767.5824175824176,748.6446886446887,686.1904761904763,-0.017883,0.146667,0.992859,0.433655,-1.495361,0.052338,585054.945055,129787106.227106,80003443.223443,87.505615,1,1,1,1,1,80.000000
2025-05-02 14:08:26.679,0.8990524479495374,-0.01008403056041902,0.03865542624084119,1.474579818814266,0.6828700607546144,-0.01799638164618001,0.2675003950761609,0.6581251464289872,0.7870490328486827,0.1193710464580436,0.2572680730953653,0.9045950004969842,0.4622697946208841,0.5601863617312466,0.6475063893352428,0.4941481335798901,-0.1167657177838082,0.3835398084667033,0.539225937012024,0.00409783806034507,753.4798534798535,803.8461538461539,801.4285714285714,799.0109890109891,496.8131868131868,-0.018311,0.145264,0.999146,0.269165,-1.226196,-1.360779,587472.527473,129798388.278388,79910769.230769,84.892593,1,1,1,1,1,80.000000
2025-05-02 14:08:27.679,1.033129766147506,0.01053194542477845,-0.02878315062721859,1.558936723886169,0.6873908419330224,-0.03996637572422149,0.1200809415867837,0.6118920579388526,0.8898160547794315,0.3597167725453445,0.2219511492983011,1.002876803803919,0.4408081453843741,0.5733327585654545,0.5390697315689742,0.4824711717605569,-0.05875634327556212,0.3940353996459734,0.6310293219653412,-0.1669468051374287,816.3369963369963,815.934065934066,815.5311355311355,789.7435897435897,725.2747252747253,-0.018005,0.145020,0.993958,0.254211,-1.465454,0.314026,586666.666667,129818534.798535,79818095.238095,82.328995,1,1,1,1,1,80.000000
2025-05-02 14:08:28.687,0.9899147213356401,-0.01063199074660222,0.05099874018681276,1.514846275631359,0.6858010769811417,0.01908351978886288,-0.02983756272347868,0.724124732345464,0.9257589177043378,0.4576627472944819,-0.1448695771101965,0.9824959143146823,0.3807098987070386,0.6069443677697417,0.5286890752343428,0.4195620298592562,-0.1607438853206571,0.2893234662516018,0.6022424510157206,-0.0778651562402826,759.5238095238095,795.3846153846154,792.967032967033,739.7802197802198,725.2747252747253,-0.019836,0.145935,0.994446,0.186920,-1.996307,0.343933,584249.084249,129741978.021978,79714139.194139,82.250244,1,1,1,1,1,80.000000
2025-05-02 14:08:29.686,1.0199167955982,0.1154439026432018,0.5075000850144573,1.514846275631359,0.6836173451896623,0.1866399224860453,0.4639215203564089,0.724124732345464,1.049440941342118,0.5162373680742397,0.4990057258932979,0.9824959143146823,0.459075729651769,0.6060775257910479,0.6583595104708295,0.4195620298592562,-0.02966331197902226,0.2777094997083229,0.4518556655858572,-0.0778651562402826,764.3589743589744,813.5164835164835,806.6666666666667,777.6556776556777,542.7472527472528,-0.016785,0.152344,0.995239,0.702820,-1.951447,-0.059814,588278.388278,129740366.300366,79672234.432234,84.647507,1,1,1,1,1,80.000000
2025-05-02 14:08:30.679,1.362607995286808,-0.1273283898185352,0.5075000850144573,1.514846275631359,0.887307375073494,-0.06381856696469318,0.4639215203564089,0.724124732345464,1.1775209564093,0.3898565490056904,0.4990057258932979,0.9824959143146823,0.5723773137600949,0.569603683946628,0.6583595104708295,0.4195620298592562,-0.04057203806622812,0.3088524371336965,0.4518556655858572,-0.0778651562402826,832.0512820512821,803.4432234432235,806.2637362637363,757.1062271062272,727.6923076923077,-0.013245,0.156433,1.004761,1.562653,-2.190704,0.687866,588278.388278,130092527.472527,79739120.879121,85.875725,1,1,1,1,1,80.000000
2025-05-02 14:08:31.679,1.248717300465644,-0.00216300177111163,0.2747416175006295,1.514846275631359,0.9512650489621843,-0.2129082350719821,0.07573478935691981,0.724124732345464,1.100590660880071,0.1465268564938908,0.5101407262531676,0.9824959143146823,0.6723971362169204,0.5423976238789048,0.7488676953255626,0.4195620298592562,-0.2886811848863566,0.2559286388058095,0.3607344190350963,-0.0778651562402826,738.5714285714286,795.3846153846154,755.0915750915751,762.7472527472528,794.5787545787546,-0.020569,0.147888,0.996033,0.844879,-2.205658,0.149536,584249.084249,129765347.985348,79571501.831502,85.767731,1,1,1,1,1,80.000000
