TimeStamp,Delta_TP9,Delta_AF7,Delta_AF8,Delta_TP10,Theta_TP9,Theta_AF7,Theta_AF8,Theta_TP10,Alpha_TP9,Alpha_AF7,Alpha_AF8,Alpha_TP10,Beta_TP9,Beta_AF7,Beta_AF8,Beta_TP10,Gamma_TP9,Gamma_AF7,Gamma_AF8,Gamma_TP10,RAW_TP9,RAW_AF7,RAW_AF8,RAW_TP10,AUX_RIGHT,Accelerometer_X,Accelerometer_Y,Accelerometer_Z,Gyro_X,Gyro_Y,Gyro_Z,PPG_Ambient,PPG_IR,PPG_Red,Heart_Rate,HeadBandOn,HSI_TP9,HSI_AF7,HSI_AF8,HSI_TP10,Battery,Elements
2025-05-02 14:44:47.681,,,,,,,,,,,,,,,,,,,,,,,,,,,,,,,,,,,,,,,,,,/muse/event/connected Muse-1C98
2025-05-02 14:44:47.726,,,,,,,,,,,,,,,,,,,,,,,,,,,,,,,,,,,,,,,,,,/muse/elements/blink
2025-05-02 14:44:48.686,1.084528974791709,0.5570660014849923,0,1.655060347661671,0.5380823003296237,0.2075854559017951,0,1.500077448388576,0.9404230030416728,0.5211666090545376,0,1.378420647434867,0.8264535223952943,0.5082837530206507,0,0.8179768711864542,0.4465418315881368,0.5204036778396881,0,0.5059235273261797,815.934065934066,813.5164835164835,745.0183150183151,796.5934065934066,831.6483516483516,0.039429,0.203857,0.982788,0.874786,-1.742096,2.758942,1033113.553114,123164542.124542,90447399.267399,98.057213,1,2,1,1,2,75.000000
2025-05-02 14:44:49.529,,,,,,,,,,,,,,,,,,,,,,,,,,,,,,,,,,,,,,,,,,/muse/elements/blink
2025-05-02 14:44:49.682,1.084528974791709,0.9051678280836423,0,1.655060347661671,0.5380823003296237,0.6123532413434341,0,1.500077448388576,0.9404230030416728,0.5498075729175946,0,1.378420647434867,0.8264535223952943,0.5778027924209069,0,0.8179768711864542,0.4465418315881368,0.4740943662280152,0,0.5059235273261797,838.901098901099,817.5457875457876,778.4615384615385,823.1868131868132,589.8901098901099,0.035156,0.205811,0.983215,0.112152,-0.463562,1.562653,969450.549451,123187106.227106,90444175.824176,94.462936,1,2,1,1,2,75.000000
2025-05-02 14:44:50.116,,,,,,,,,,,,,,,,,,,,,,,,,,,,,,,,,,,,,,,,,,/muse/elements/blink
2025-05-02 14:44:50.694,1.084528974791709,1.093213562072654,0,1.655060347661671,0.5380823003296237,0.7828048255064924,0,1.500077448388576,0.9404230030416728,0.533247908144576,0,1.378420647434867,0.8264535223952943,0.7438965387673087,0,0.8179768711864542,0.4465418315881368,0.4716418384831602,0,0.5059235273261797,867.5091575091575,805.8608058608058,817.948717948718,881.6117216117217,994.4322344322345,-0.003845,0.197144,1.001587,-1.263580,4.112244,2.998199,967838.827839,122863956.043956,90402271.062271,92.414917,1,2,1,1,2,75.000000
2025-05-02 14:44:51.682,1.084528974791709,1.093213562072654,0,1.655060347661671,0.5380823003296237,0.7828048255064924,0,1.500077448388576,0.9404230030416728,0.533247908144576,0,1.378420647434867,0.8264535223952943,0.7438965387673087,0,0.8179768711864542,0.4465418315881368,0.4716418384831602,0,0.5059235273261797,830.4395604395604,805.4578754578755,830.4395604395604,816.7399267399268,641.8681318681319,-0.025391,0.204773,0.983093,0.149536,-5.308533,-5.510406,990402.930403,122771282.051282,90177435.897436,91.605240,1,2,1,1,2,75.000000
2025-05-02 14:44:51.755,,,,,,,,,,,,,,,,,,,,,,,,,,,,,,,,,,,,,,,,,,/muse/elements/blink
2025-05-02 14:44:52.682,1.084528974791709,1.093213562072654,0,1.655060347661671,0.5380823003296237,0.7828048255064924,0,1.500077448388576,0.9404230030416728,0.533247908144576,0,1.378420647434867,0.8264535223952943,0.7438965387673087,0,0.8179768711864542,0.4465418315881368,0.4716418384831602,0,0.5059235273261797,562.0879120879121,826.8131868131868,859.047619047619,556.8498168498169,553.6263736263736,-0.027466,0.221863,0.975342,1.921539,-3.843079,5.054321,1024249.084249,122494871.794872,90045274.725275,90.141968,1,2,1,1,2,75.000000
2025-05-02 14:44:52.881,,,,,,,,,,,,,,,,,,,,,,,,,,,,,,,,,,,,,,,,,,/muse/elements/blink
2025-05-02 14:44:53.309,,,,,,,,,,,,,,,,,,,,,,,,,,,,,,,,,,,,,,,,,,/muse/elements/blink
2025-05-02 14:44:53.682,1.084528974791709,1.093213562072654,0,1.655060347661671,0.5380823003296237,0.7828048255064924,0,1.500077448388576,0.9404230030416728,0.533247908144576,0,1.378420647434867,0.8264535223952943,0.7438965387673087,0,0.8179768711864542,0.4465418315881368,0.4716418384831602,0,0.5059235273261797,862.2710622710623,803.8461538461539,738.5714285714286,871.5384615384615,811.5018315018315,0.013306,0.177979,1.005432,-9.136658,-13.488159,-1.525269,1065347.985348,122487619.047619,90054139.194139,90.987213,1,2,1,1,2,75.000000
2025-05-02 14:44:54.613,,,,,,,,,,,,,,,,,,,,,,,,,,,,,,,,,,,,,,,,,,/muse/elements/blink
2025-05-02 14:44:54.682,1.084528974791709,1.093213562072654,0,1.655060347661671,0.5380823003296237,0.7828048255064924,0,1.500077448388576,0.9404230030416728,0.533247908144576,0,1.378420647434867,0.8264535223952943,0.7438965387673087,0,0.8179768711864542,0.4465418315881368,0.4716418384831602,0,0.5059235273261797,897.3260073260074,805.8608058608058,780.0732600732601,890.4761904761905,713.5897435897436,-0.000122,0.171204,1.006348,-0.067291,2.444916,0.463562,1102417.582418,122590769.230769,90149230.769231,89.032639,1,2,1,1,2,75.000000
2025-05-02 14:44:55.003,,,,,,,,,,,,,,,,,,,,,,,,,,,,,,,,,,,,,,,,,,/muse/elements/blink
2025-05-02 14:44:55.688,1.084528974791709,1.093213562072654,0,1.655060347661671,0.5380823003296237,0.7828048255064924,0,1.500077448388576,0.9404230030416728,0.533247908144576,0,1.378420647434867,0.8264535223952943,0.7438965387673087,0,0.8179768711864542,0.4465418315881368,0.4716418384831602,0,0.5059235273261797,875.5677655677656,821.5750915750916,740.5860805860806,811.0989010989011,690.6227106227107,0.011719,0.205444,0.995178,0.657959,-0.904694,4.979553,1137069.597070,122498095.238095,89899413.919414,88.194244,1,2,1,1,2,75.000000
2025-05-02 14:44:56.442,,,,,,,,,,,,,,,,,,,,,,,,,,,,,,,,,,,,,,,,,,/muse/elements/blink
2025-05-02 14:44:56.688,1.084528974791709,1.093213562072654,0,1.655060347661671,0.5380823003296237,0.7828048255064924,0,1.500077448388576,0.9404230030416728,0.533247908144576,0,1.378420647434867,0.8264535223952943,0.7438965387673087,0,0.8179768711864542,0.4465418315881368,0.4716418384831602,0,0.5059235273261797,855.4212454212454,794.5787545787546,758.3150183150184,846.1538461538462,655.5677655677656,0.136902,0.132324,1.006714,2.729034,-0.381317,-0.792542,1109670.329670,122415091.575092,89852673.992674,89.175980,1,2,1,1,2,75.000000
2025-05-02 14:44:57.576,,,,,,,,,,,,,,,,,,,,,,,,,,,,,,,,,,,,,,,,,,/muse/elements/blink
2025-05-02 14:44:57.682,1.084528974791709,0.5648692737360425,0,1.578603732094212,0.5380823003296237,0.081503169673476,0,1.923578429343156,0.9404230030416728,0.3949462569467473,0,1.531543419031781,0.8264535223952943,0.5247540098205898,0,1.060374599187148,0.4465418315881368,0.3101626296922227,0,0.5853166124056469,843.3333333333334,770.4029304029305,828.021978021978,850.989010989011,843.7362637362637,0.100525,0.154785,0.997253,1.884155,0.807495,-4.127197,1119340.659341,122401391.941392,89996923.076923,89.435104,1,1,1,1,1,75.000000
2025-05-02 14:44:58.462,,,,,,,,,,,,,,,,,,,,,,,,,,,,,,,,,,,,,,,,,,/muse/elements/blink
2025-05-02 14:44:58.682,1.084528974791709,0.4237618467888202,0,1.566423440478086,0.5380823003296237,-0.1968686357266622,0,1.916164034861319,0.9404230030416728,0.3843537905343298,0,1.531543419031781,0.8264535223952943,0.4972850650532705,0,1.037445694454115,0.4465418315881368,0.119916023161809,0,0.5810177054450337,1006.117216117216,818.7545787545788,855.0183150183151,803.4432234432235,328.7912087912088,0.016724,0.267761,1.023438,-1.480408,9.046936,3.267365,1062124.542125,121979120.879121,89671355.311355,87.800941,1,1,1,1,1,75.000000
2025-05-02 14:44:58.791,,,,,,,,,,,,,,,,,,,,,,,,,,,,,,,,,,,,,,,,,,/muse/elements/blink
2025-05-02 14:44:59.272,,,,,,,,,,,,,,,,,,,,,,,,,,,,,,,,,,,,,,,,,,/muse/elements/blink
2025-05-02 14:44:59.510,,,,,,,,,,,,,,,,,,,,,,,,,,,,,,,,,,,,,,,,,,/muse/elements/blink
2025-05-02 14:44:59.681,1.084528974791709,0.4237618467888202,0,1.566423440478086,0.5380823003296237,-0.1968686357266622,0,1.916164034861319,0.9404230030416728,0.3843537905343298,0,1.531543419031781,0.8264535223952943,0.4972850650532705,0,1.037445694454115,0.4465418315881368,0.119916023161809,0,0.5810177054450337,819.96336996337,800.2197802197802,1622.197802197802,931.1721611721612,879.1941391941392,0.047119,0.219238,0.999146,0.508423,-6.691742,4.321594,997655.677656,121895311.355311,89361098.901099,87.414040,1,1,1,1,1,75.000000
2025-05-02 14:45:00.480,,,,,,,,,,,,,,,,,,,,,,,,,,,,,,,,,,,,,,,,,,/muse/elements/jaw_clench
2025-05-02 14:45:00.684,1.084528974791709,0.4237618467888202,0,1.566423440478086,0.5380823003296237,-0.1968686357266622,0,1.916164034861319,0.9404230030416728,0.3843537905343298,0,1.531543419031781,0.8264535223952943,0.4972850650532705,0,1.037445694454115,0.4465418315881368,0.119916023161809,0,0.5810177054450337,862.6739926739926,800.2197802197802,405.3479853479853,853.4065934065934,781.2820512820513,-0.047302,0.194519,0.992371,-4.904785,3.865509,0.127106,946080.586081,121875164.835165,91943882.783883,88.085556,1,2,1,4,2,75.000000
2025-05-02 14:45:00.715,,,,,,,,,,,,,,,,,,,,,,,,,,,,,,,,,,,,,,,,,,/muse/elements/jaw_clench
2025-05-02 14:45:01.314,,,,,,,,,,,,,,,,,,,,,,,,,,,,,,,,,,,,,,,,,,/muse/elements/jaw_clench
2025-05-02 14:45:01.614,,,,,,,,,,,,,,,,,,,,,,,,,,,,,,,,,,,,,,,,,,/muse/elements/jaw_clench
2025-05-02 14:45:01.681,1.084528974791709,0.510873816716286,0,1.269896657594232,0.5380823003296237,0.2384644562138239,0,1.079580072725752,0.9404230030416728,0.5627500860907571,0,1.22338839768861,0.8264535223952943,0.8925656185670373,0,1.30724435055419,0.4465418315881368,0.8826376575152171,0,1.137521799553095,812.7106227106227,795.3846153846154,610.0366300366301,807.4725274725275,580.2197802197802,0.015991,0.191101,0.996155,1.495361,-0.231781,-0.112152,718021.978022,122094358.974359,92184835.164835,93.865677,1,1,1,2,1,75.000000
2025-05-02 14:45:02.023,,,,,,,,,,,,,,,,,,,,,,,,,,,,,,,,,,,,,,,,,,/muse/elements/jaw_clench
2025-05-02 14:45:02.682,1.084528974791709,0.510873816716286,0,1.16483505558058,0.5380823003296237,0.2384644562138239,0,0.8883453179550197,0.9404230030416728,0.5627500860907571,0,1.249016849209509,0.8264535223952943,0.8925656185670373,0,1.205715776335359,0.4465418315881368,0.8826376575152171,0,1.117077376699133,808.2783882783883,818.7545787545788,639.4505494505495,807.8754578754579,935.2014652014652,0.013245,0.174866,0.992615,1.031799,-2.415009,-2.385101,623736.263736,122402197.802198,92487032.967033,96.017136,1,1,1,1,1,75.000000
2025-05-02 14:45:03.431,,,,,,,,,,,,,,,,,,,,,,,,,,,,,,,,,,,,,,,,,,/muse/elements/blink
2025-05-02 14:45:03.682,1.084528974791709,0.510873816716286,0,0.9753045348664507,0.5380823003296237,0.2384644562138239,0,0.7652363366107084,0.9404230030416728,0.5627500860907571,0,0.612884396706031,0.8264535223952943,0.8925656185670373,0,1.119075731959317,0.4465418315881368,0.8826376575152171,0,1.242689871443413,828.8278388278388,807.8754578754579,616.4835164835165,824.7985347985348,626.959706959707,0.035767,0.175537,0.996033,-0.299072,-4.725342,2.287903,632600.732601,122477948.717949,92651428.571429,96.016632,1,1,1,1,1,75.000000
2025-05-02 14:45:04.048,,,,,,,,,,,,,,,,,,,,,,,,,,,,,,,,,,,,,,,,,,/muse/elements/blink
2025-05-02 14:45:04.134,,,,,,,,,,,,,,,,,,,,,,,,,,,,,,,,,,,,,,,,,,/muse/elements/jaw_clench
2025-05-02 14:45:04.457,,,,,,,,,,,,,,,,,,,,,,,,,,,,,,,,,,,,,,,,,,/muse/elements/jaw_clench
2025-05-02 14:45:04.682,1.084528974791709,0.510873816716286,0,0.8606907968026397,0.5380823003296237,0.2384644562138239,0,0.7009565671765591,0.9404230030416728,0.5627500860907571,0,0.4595150258043005,0.8264535223952943,0.8925656185670373,0,1.085878304743659,0.4465418315881368,0.8826376575152171,0,1.251303336648826,838.4981684981685,819.1575091575091,597.948717948718,801.4285714285714,634.6153846153846,-0.017090,0.175720,0.987488,0.456085,-0.643005,-0.478516,636630.036630,122216043.956044,92071208.791209,96.016632,1,1,1,1,1,75.000000
2025-05-02 14:45:05.159,,,,,,,,,,,,,,,,,,,,,,,,,,,,,,,,,,,,,,,,,,/muse/elements/blink
2025-05-02 14:45:05.682,1.084528974791709,0.510873816716286,0,0.8606907968026397,0.5380823003296237,0.2384644562138239,0,0.7009565671765591,0.9404230030416728,0.5627500860907571,0,0.4595150258043005,0.8264535223952943,0.8925656185670373,0,1.085878304743659,0.4465418315881368,0.8826376575152171,0,1.251303336648826,807.0695970695971,803.040293040293,677.3260073260074,836.8864468864469,964.2124542124542,-0.006836,0.185730,0.984436,-1.644897,2.968292,1.054230,647912.087912,121957362.637363,91917289.377289,92.848457,1,1,1,1,1,75.000000
2025-05-02 14:45:06.494,,,,,,,,,,,,,,,,,,,,,,,,,,,,,,,,,,,,,,,,,,/muse/elements/blink
2025-05-02 14:45:06.682,1.084528974791709,0.510873816716286,0,0.8606907968026397,0.5380823003296237,0.2384644562138239,0,0.7009565671765591,0.9404230030416728,0.5627500860907571,0,0.4595150258043005,0.8264535223952943,0.8925656185670373,0,1.085878304743659,0.4465418315881368,0.8826376575152171,0,1.251303336648826,732.5274725274726,853.8095238095239,686.996336996337,803.040293040293,563.6996336996338,-0.024780,0.193054,0.991455,4.089813,5.704803,0.912170,677728.937729,121448864.468864,91754505.494505,86.945755,1,2,1,1,2,75.000000
2025-05-02 14:45:07.075,,,,,,,,,,,,,,,,,,,,,,,,,,,,,,,,,,,,,,,,,,/muse/elements/blink
2025-05-02 14:45:07.332,,,,,,,,,,,,,,,,,,,,,,,,,,,,,,,,,,,,,,,,,,/muse/elements/blink
2025-05-02 14:45:07.682,1.084528974791709,0.510873816716286,0,0.8606907968026397,0.5380823003296237,0.2384644562138239,0,0.7009565671765591,0.9404230030416728,0.5627500860907571,0,0.4595150258043005,0.8264535223952943,0.8925656185670373,0,1.085878304743659,0.4465418315881368,0.8826376575152171,0,1.251303336648826,823.5897435897436,781.2820512820513,682.967032967033,758.7179487179487,77.36263736263737,-0.029297,0.186768,0.981140,2.115936,-1.360779,-2.616882,693040.293040,121469010.989011,91866520.146520,86.043015,1,2,1,1,2,75.000000
2025-05-02 14:45:08.309,,,,,,,,,,,,,,,,,,,,,,,,,,,,,,,,,,,,,,,,,,/muse/elements/blink
2025-05-02 14:45:08.633,,,,,,,,,,,,,,,,,,,,,,,,,,,,,,,,,,,,,,,,,,/muse/elements/blink
2025-05-02 14:45:08.633,,,,,,,,,,,,,,,,,,,,,,,,,,,,,,,,,,,,,,,,,,/muse/elements/jaw_clench
2025-05-02 14:45:08.696,1.084528974791709,0.510873816716286,0,0.8606907968026397,0.5380823003296237,0.2384644562138239,0,0.7009565671765591,0.9404230030416728,0.5627500860907571,0,0.4595150258043005,0.8264535223952943,0.8925656185670373,0,1.085878304743659,0.4465418315881368,0.8826376575152171,0,1.251303336648826,885.6410256410256,772.4175824175825,789.3406593406594,866.7032967032967,772.4175824175825,-0.043396,0.178589,0.988464,0.964508,-0.254211,0.433655,701098.901099,121217582.417582,91830256.410256,87.779152,1,2,1,1,2,75.000000
2025-05-02 14:45:09.144,,,,,,,,,,,,,,,,,,,,,,,,,,,,,,,,,,,,,,,,,,/muse/elements/blink
2025-05-02 14:45:09.682,1.084528974791709,0.510873816716286,0,0.8606907968026397,0.5380823003296237,0.2384644562138239,0,0.7009565671765591,0.9404230030416728,0.5627500860907571,0,0.4595150258043005,0.8264535223952943,0.8925656185670373,0,1.085878304743659,0.4465418315881368,0.8826376575152171,0,1.251303336648826,890.4761904761905,859.8534798534798,694.2490842490843,838.901098901099,614.8717948717949,-0.051453,0.181580,0.987976,-0.605621,-2.863617,0.957031,707545.787546,121384395.604396,91959194.139194,88.800858,1,2,1,1,2,75.000000
2025-05-02 14:45:10.683,1.084528974791709,0.510873816716286,0,0.8606907968026397,0.5380823003296237,0.2384644562138239,0,0.7009565671765591,0.9404230030416728,0.5627500860907571,0,0.4595150258043005,0.8264535223952943,0.8925656185670373,0,1.085878304743659,0.4465418315881368,0.8826376575152171,0,1.251303336648826,836.0805860805862,815.1282051282052,768.7912087912088,814.3223443223443,733.7362637362637,-0.049988,0.182861,0.993042,0.306549,-1.861725,1.547699,715604.395604,121435970.695971,91964029.304029,88.888962,1,2,1,1,2,75.000000
2025-05-02 14:45:11.690,1.084528974791709,0.5091683585219799,0,0.9197638024217923,0.5380823003296237,0.1766913253575191,0,0.4335352219685943,0.9404230030416728,0.2713639159192985,0,0.6667361457788809,0.8264535223952943,0.7180404386718245,0,0.6984398305340855,0.4465418315881368,0.5745709740999801,0,0.3234706166251013,647.9120879120879,762.7472527472528,818.7545787545788,678.1318681318681,689.8168498168499,-0.044373,0.186707,0.983459,-0.037384,-1.869202,-0.583191,719633.699634,121497216.117216,91976117.216117,89.734085,1,1,1,1,1,75.000000
2025-05-02 14:45:11.870,,,,,,,,,,,,,,,,,,,,,,,,,,,,,,,,,,,,,,,,,,/muse/elements/blink
2025-05-02 14:45:12.692,1.084528974791709,0.4922223423472449,0,0.7461740405767542,0.5380823003296237,0.278405438888951,0,0.3796708905198263,0.9404230030416728,0.2488109030964178,0,0.5438620447716804,0.8264535223952943,0.5755742509541379,0,0.5159810604964754,0.4465418315881368,0.480795153757329,0,0.2969984107363292,861.8681318681319,815.5311355311355,821.1721611721612,811.9047619047619,538.7179487179487,-0.088501,0.171936,0.994141,2.482300,0.927124,-2.302856,722857.142857,121377142.857143,91730329.670330,90.149704,1,1,1,1,1,75.000000
2025-05-02 14:45:13.681,1.022065581672397,0.6902230484925281,0.9739865547442074,1.118308086621095,0.9282714615666234,0.4773227041440962,0.9859154241601316,0.3337045022697744,0.631362204709252,0.6352561479644562,1.014215338307844,0.3408405294402589,0.6598919310766016,0.9541778193261571,0.8464490266949312,0.61457389903301,0.4145159086026829,0.7183649343622084,0.1988008447477413,0.01524270899612399,856.6300366300367,811.0989010989011,772.014652014652,818.3516483516484,704.7252747252747,-0.058289,0.179016,0.989380,0.164490,-1.173859,0.291595,721245.421245,121348937.728938,91778681.318681,89.101913,1,1,1,1,1,75.000000
2025-05-02 14:45:14.682,0.9539757976676705,0.7065178701503827,1.026768059421903,1.179831497189702,0.705717747430964,0.4137186877526283,0.4512857971728344,0.4974072846277667,0.619736366765961,0.9465644947845735,0.5555881107477426,0.4671668830652891,0.6100264028495408,0.7598338108928077,0.7042511441117101,0.4822537432011639,0.4321513325189138,0.5066890813613711,0.4033800978955517,0.003953844457637686,634.2124542124542,826.007326007326,773.2234432234433,661.6117216117216,789.3406593406594,-0.056641,0.177856,0.991394,0.067291,-0.471039,-0.994415,723663.003663,121215164.835165,91749670.329670,85.943459,1,1,1,1,1,75.000000
2025-05-02 14:45:14.834,,,,,,,,,,,,,,,,,,,,,,,,,,,,,,,,,,,,,,,,,,/muse/elements/blink
2025-05-02 14:45:15.681,0.867867502572756,0.939927565781268,0.7986959127547815,1.202510460704153,0.4454258287679054,0.7332607267466645,0.1852171633928764,0.6237669745991596,0.5375531693085155,0.9379700137097421,0.4589490944386072,0.3296199525083258,0.5719785925691938,0.500213203359452,0.8113332342625994,0.3301021378184208,0.4187735909001604,0.4520639426493356,0.06451068904522332,0.07212655674958859,824.3956043956044,813.919413919414,768.3882783882784,801.8315018315019,550.8058608058608,-0.057983,0.179321,0.986877,0.672913,-1.973877,-0.269165,722857.142857,121054798.534799,91732747.252747,82.952927,1,1,1,1,1,75.000000
2025-05-02 14:45:16.690,0.0229740196968832,0.2536758367622948,0.6799783202520542,0.1314920688998451,0.1640245777698616,0.04527429870292733,0.2190574842568151,0.428962020416515,0.5938608173470614,0.45744358340131,0.6922070329394925,0.6057581821888824,0.4016354630435823,0.6171654387799554,0.8551229252857321,0.3999208032372691,0.026459038655238,0.5140184545492908,0.05646496505682843,0.2181400097039484,831.6483516483516,805.8608058608058,776.8498168498169,816.3369963369963,819.5604395604396,-0.065063,0.175964,0.990173,-0.000000,-2.317810,-0.314026,729304.029304,121069304.029304,91771428.571429,84.440422,1,1,1,1,1,75.000000
2025-05-02 14:45:17.694,-0.1018979707265979,0.2755626112130521,0.6473236204073991,0.3494121677535466,0.2409015783382655,0.1402638359131279,0.2505371659005965,0.3739704795864923,0.634175773181055,0.3407987493067271,0.6770539733234056,0.685103596315674,0.4336355083796552,0.5516337535373351,0.85197638400679,0.4432261900672572,0.1251237454189554,0.4679323845203926,-0.06930855196309393,0.2257427526355633,829.2307692307693,805.8608058608058,763.956043956044,823.992673992674,962.6007326007326,-0.060181,0.178955,0.988342,0.949554,-1.510315,-0.396271,726080.586081,121049157.509158,91793992.673993,84.481247,1,1,1,1,1,75.000000
2025-05-02 14:45:18.682,0.03488864252235119,0.487225068408728,0.7674810523473157,0.4541403219127735,0.2979357827136448,0.1814615501309467,0.6808212556549512,0.2168705725251047,0.7366627304036841,0.2622138534537347,0.7151280208457554,0.6768442565913442,0.4687342671401104,0.6877841546463331,0.8054553069674818,0.4830924213134016,0.2017143198266337,0.4365930757239767,-0.09545989574191066,0.08445923159716187,846.5567765567765,824.3956043956044,794.5787545787546,812.7106227106227,581.8315018315019,-0.063232,0.183472,0.991516,0.687866,-2.108459,0.560760,726080.586081,120991941.391941,91758534.798535,82.936005,1,1,1,1,1,75.000000
2025-05-02 14:45:19.682,0.4142243247235812,0.4558549659646101,0.8605667503194475,0.4697597204265315,0.4828233618915247,0.268531538718323,0.6105743581635944,0.1872051944863216,0.8174431748174499,0.3123854797276805,0.811137414414121,0.6323761886710906,0.4202035457018525,0.581456293177679,0.7304180576725715,0.4643743994876158,0.1189019433974791,0.2180652328291501,0.01913889940550188,0.05862287255846558,819.1575091575091,793.3699633699634,781.6849816849817,818.7545787545788,676.5201465201466,-0.062256,0.177979,0.988037,0.822449,-0.949554,-0.149536,729304.029304,121182124.542125,91791575.091575,81.272552,1,1,1,1,1,75.000000
2025-05-02 14:45:20.682,0.5319991185095417,0.5876310499077922,0.7370290783282719,0.2738419713294036,0.3213299533650296,0.291957305424191,0.6284274301138855,0.3017757305739632,0.726100772102492,0.4164543491883424,0.6829576320005962,0.6122269839204394,0.4467404831416263,0.4341175950559606,0.6099993476272341,0.4246162567158864,0.07672633666661867,0.010326583363094,0.2855555823819102,0.05855609315283173,801.025641025641,803.8461538461539,776.0439560439561,844.5421245421246,672.0879120879121,-0.075073,0.192993,1.010254,4.852448,6.026306,-1.076660,726886.446886,121145054.945055,91752087.912088,81.909851,1,1,1,1,1,75.000000
2025-05-02 14:45:21.441,,,,,,,,,,,,,,,,,,,,,,,,,,,,,,,,,,,,,,,,,,/muse/elements/blink
2025-05-02 14:45:21.687,0.4774250469261127,0.4643385085229405,0.8324520963932356,0.4704038230525643,0.2052399399635326,0.2228867255482624,0.4241811119737767,0.5620970702028241,0.7507474844325072,0.5859475450656751,0.8427912356097811,0.5567713238444993,0.3962287261457291,0.3445901125703776,0.5734169128073722,0.3377692655878711,0.1040285730256237,-0.07004578835097411,0.2977669136649236,-0.06515170570995135,841.7216117216118,824.7985347985348,784.9084249084249,812.3076923076924,599.9633699633699,-0.057434,0.188354,0.987305,0.687866,-2.392578,0.112152,728498.168498,121262710.622711,91683589.743590,81.984116,1,1,1,1,1,75.000000
2025-05-02 14:45:22.681,0.06269434938160315,0.4648074192803505,1.008545084039847,0.6452523567868712,0.3850189903489883,0.3458009958766032,0.738616351965394,0.7268368832060816,0.6986593748941462,0.6158181445660734,0.8395276636485463,0.2383305939510685,0.4347503456922598,0.5810082087635429,0.4948287459949592,0.4231034716691088,0.09223554915326485,0.2579823736157504,0.1179931605070117,-0.0992304686378747,835.2747252747253,809.0842490842491,802.2344322344322,813.5164835164835,604.7985347985348,-0.072937,0.178894,0.993408,0.814972,3.633728,-0.657959,724468.864469,121176483.516484,91637655.677656,81.559601,1,1,1,1,1,75.000000
2025-05-02 14:45:23.681,0.5056650625389096,0.6422178543275004,0.8973905170406223,0.4219083379809676,0.1722522049519563,0.2620105427058616,0.9696146550838951,0.4823968036009214,0.5502231238668414,0.4014047868191085,0.8296788974336544,0.8276333271510843,0.3871637638918283,0.5993142509222731,0.5762934578190486,0.486640763133838,0.2298319289148482,0.1543764900438629,-0.07609142110449831,0.1490631938529659,807.4725274725275,799.4139194139194,799.8168498168499,812.7106227106227,735.3479853479854,-0.071838,0.181091,0.983704,0.381317,-2.923431,-0.575714,722051.282051,120980659.340659,91461172.161172,83.141106,1,1,1,1,1,75.000000
2025-05-02 14:45:24.685,0.4148899637371133,0.9109287021983185,0.5472825179628571,0.8828968539141596,0.2544309800725444,0.2950645987186334,0.3075885399746973,0.686827012948634,0.6324312485815933,0.3448991610943931,0.9496049131801743,0.7895629709040758,0.4393696089854157,0.3816294072730233,0.7907425538902824,0.4407989241105827,0.1279488563193085,-0.1326905092320953,-0.0487273658501828,-0.01728414900844057,840.9157509157509,806.2637362637363,808.2783882783883,818.7545787545788,724.4688644688645,-0.081726,0.169006,0.980713,0.059814,-1.644897,0.097198,714798.534799,120852527.472527,91269377.289377,84.974091,1,1,1,1,1,75.000000
2025-05-02 14:45:25.681,0.2236559461054437,0.4020881891635699,0.6054763411924443,0.7602318066434103,0.161971207916304,0.1686745145336648,0.5348769635306255,0.5311557620443996,0.6700584443282239,0.472527466436945,0.9496049131801743,1.012291160842706,0.4935541070385858,0.3011276106904116,0.6261298424159117,0.2909386919311648,-0.006587757787994525,0.1071555575570823,-0.0111157741738775,-0.04419941969312226,837.2893772893773,811.9047619047619,770,825.2014652014652,628.5714285714286,-0.073669,0.184265,0.988770,0.927124,-0.426178,-0.702820,713992.673993,120670402.930403,91161391.941392,84.239868,1,1,1,1,1,75.000000
2025-05-02 14:45:26.681,0.3832435801542397,0.1163315175055956,0.73536788699733,0.9194530985259447,0.3009898783518077,0.3022856436195735,0.5697122430356438,0.7140908870103717,0.5301316211598387,0.4438375910154194,0.7313872799604543,1.012291160842706,0.5296221978626403,0.2601948856308918,0.4996795084829032,0.4564185869183472,0.08372960037890081,0.1071183468440735,0.1478526779914296,-0.004718733267326731,813.919413919414,806.2637362637363,778.0586080586081,812.7106227106227,788.9377289377289,-0.078003,0.183838,0.986328,0.388794,-1.540222,0.074768,713186.813187,120472967.032967,91086446.886447,81.740601,1,1,1,1,1,75.000000
2025-05-02 14:45:27.682,0.5579117344532837,0.4670563734104046,0.9702671145709306,0.7753551711838551,0.4819220922823585,0.5770677006841139,0.8247686603571299,0.703282917708725,0.8695653313112672,0.6878426912081883,1.06680708127472,0.9540219079913999,0.4297484585632566,0.2377894451277446,0.6319147802190003,0.3610453390427216,-0.02586837043674368,0.06151699161825067,0.06634817469882215,-0.003667220320572161,837.6923076923077,794.5787545787546,805.0549450549451,809.4871794871796,546.3736263736264,-0.067139,0.180786,0.984619,0.284119,-1.300964,0.284119,711575.091575,120562417.582418,91100952.380952,80.178528,1,1,1,1,1,75.000000
2025-05-02 14:45:28.685,0.4082632023470911,0.3853093465239871,1.125498334057253,0.5341937277643328,0.3651250360088822,0.3485308289197273,0.9044581970512433,0.5281121127941856,0.783805251470434,0.5670229923559036,0.9907112135189255,0.8792024009084254,0.5869940082179164,0.3617756946873945,0.7112559723185541,0.278940070121856,-0.1211923304074135,0.05648089699158809,0.09073881581095536,-0.02150588287582468,820.7692307692308,788.9377289377289,782.893772893773,826.8131868131868,769.5970695970697,-0.082031,0.181946,0.994324,0.366364,-0.874786,0.142059,709157.509158,120380293.040293,90764102.564103,80.688469,1,1,1,1,1,75.000000
2025-05-02 14:45:29.338,,,,,,,,,,,,,,,,,,,,,,,,,,,,,,,,,,,,,,,,,,/muse/elements/blink
2025-05-02 14:45:29.689,0.4283185885859786,0.5003463639607346,1.125498334057253,0.4249919677746195,0.3705417486150167,0.3114048482838903,0.9044581970512433,0.2182143140270064,0.5416761825370712,0.645130536575812,0.9907112135189255,0.3353089703352467,0.686084895834211,0.3504104368498426,0.7112559723185541,0.2324571215270853,-0.1766717942995834,-0.1687147305458028,0.09073881581095536,-0.1314886942794627,808.6813186813187,780.4761904761905,776.0439560439561,828.021978021978,641.4652014652015,-0.076721,0.179504,0.990356,0.239258,-1.443024,-0.186920,708351.648352,120385128.205128,90717362.637363,80.163307,1,1,1,1,1,75.000000
2025-05-02 14:45:30.681,0.5766666097776891,0.8130746493739713,1.045264946721631,0.2708475189331719,0.300559250373611,0.5378129023075866,0.8780825176657144,-0.03389832750173579,0.2106378749367943,0.6875853533321661,0.885836349105519,0.159565879305353,0.6012819109931717,0.3408018679739682,0.5786131579477215,0.3284472206305776,-0.08145381328667839,0.3897409107204645,0.1881050021814615,-0.077008928225285,828.4249084249085,811.0989010989011,821.978021978022,816.7399267399268,608.4249084249085,-0.080017,0.177917,0.985718,0.852356,-0.971985,-0.485992,712380.952381,120572893.772894,90727032.967033,81.076996,1,1,1,1,1,75.000000
2025-05-02 14:45:30.959,,,,,,,,,,,,,,,,,,,,,,,,,,,,,,,,,,,,,,,,,,/muse/elements/blink
2025-05-02 14:45:31.681,0.5766666097776891,0.910594795657668,1.045264946721631,0.2708475189331719,0.300559250373611,0.5708236773782994,0.8780825176657144,-0.03389832750173579,0.2106378749367943,0.343365723011859,0.885836349105519,0.159565879305353,0.6012819109931717,0.3498857258056275,0.5786131579477215,0.3284472206305776,-0.08145381328667839,0.3689987225819548,0.1881050021814615,-0.077008928225285,872.3443223443223,779.6703296703297,786.1172161172161,857.4358974358975,755.8974358974359,-0.082764,0.179993,0.985901,1.577606,-1.009369,0.074768,712380.952381,120439926.739927,90599706.959707,82.545105,1,1,1,1,1,75.000000
2025-05-02 14:45:31.708,,,,,,,,,,,,,,,,,,,,,,,,,,,,,,,,,,,,,,,,,,/muse/elements/blink
2025-05-02 14:45:32.682,0.5766666097776891,1.106054585138908,1.045264946721631,0.2708475189331719,0.300559250373611,0.739119177601289,0.8780825176657144,-0.03389832750173579,0.2106378749367943,0.3305729289397633,0.885836349105519,0.159565879305353,0.6012819109931717,0.3355494848920184,0.5786131579477215,0.3284472206305776,-0.08145381328667839,0.06672078781891584,0.1881050021814615,-0.077008928225285,831.2454212454213,803.040293040293,786.9230769230769,826.4102564102565,696.2637362637363,-0.085754,0.182007,0.986145,0.388794,-1.929016,-0.164490,713186.813187,120235238.095238,90522344.322344,82.144409,1,2,1,1,2,75.000000
2025-05-02 14:45:33.685,0.5766666097776891,1.078651181259666,1.045264946721631,1.001552438147064,0.300559250373611,0.5199873380817229,0.8780825176657144,0.2431981165915374,0.2106378749367943,0.5276198469015457,0.885836349105519,0.2768872567720979,0.6012819109931717,0.2423152969384435,0.5786131579477215,0.4096837871803688,-0.08145381328667839,0.06430082978366823,0.1881050021814615,0.09462407401684109,839.3040293040293,811.5018315018315,812.3076923076924,819.5604395604396,690.6227106227107,-0.078735,0.182312,0.982544,0.246735,-1.472931,0.171967,712380.952381,120128864.468864,90518315.018315,81.173340,1,1,1,1,1,75.000000
2025-05-02 14:45:34.681,0.4785820472177825,0.7846928798462689,0.9895744716288226,0.9980673578136005,0.4129174409284486,0.4039679020412656,1.055214875470284,0.7143500540948978,0.5590037707998916,0.6197887102644398,1.203662937114963,0.7346688323115648,0.4997267496472407,0.2896762082809772,0.7592718038357548,0.6593211940234934,-0.06478031576822346,0.0824589864168466,0.1964876864996639,0.01240615471710749,832.4542124542124,808.2783882783883,816.7399267399268,821.1721611721612,640.6593406593407,-0.076111,0.179932,0.984070,0.971985,-1.876678,-0.343933,709963.369963,120045054.945055,90552161.172161,80.044266,1,1,1,1,1,75.000000
2025-05-02 14:45:35.682,0.2488814432219522,0.9536803193418594,1.175743260135819,1.075336117766822,-0.06373153989207013,0.601663045412891,1.16811354903526,0.8368228429919208,0.297672035348027,0.5673221438165833,1.22339444471584,0.7543381763240421,0.5858784853379109,0.4332885888707789,0.7246211185848174,0.6398537224179648,-0.1692138156392502,0.1157424541166196,0.09546239188721325,-0.06127015253498158,795.7875457875458,791.7582417582418,792.5641025641025,823.1868131868132,657.985347985348,-0.082886,0.184509,0.988953,0.403748,-0.919647,-0.448608,711575.091575,119855677.655678,90506227.106227,78.395348,1,1,1,1,1,75.000000
2025-05-02 14:45:36.681,0.2100941028899365,0.369248582163821,1.019816693986575,0.3044931444662327,0.3671332346459273,0.3609952027272509,0.5748281098928804,0.5541395362629837,0.3566504080485131,0.2305810943266657,0.8415400124847365,0.5380689063685391,0.4634554693082834,0.310720742593523,0.7748835502321311,0.289794482408958,-0.1075684106475209,-0.0485111384089301,0.111627423584915,0.06479412074194561,857.8388278388279,784.9084249084249,809.4871794871796,844.9450549450549,828.8278388278388,-0.084839,0.182068,0.981812,0.538330,-1.854248,-0.500946,709963.369963,119783150.183150,90467545.787546,75.876259,1,1,1,1,1,75.000000
2025-05-02 14:45:36.779,,,,,,,,,,,,,,,,,,,,,,,,,,,,,,,,,,,,,,,,,,/muse/elements/blink
2025-05-02 14:45:37.689,0.02362425949068367,0.3935272403820375,0.9995225474110551,0.4348112089448243,0.4533656877621022,0.03577383152695891,0.5506080916797709,0.4906264956599655,0.04797471437522716,0.38139094051773,0.774636148298409,0.1856226865288066,0.2907413789605484,0.2462538017784975,0.9024545662514447,0.2081450481374908,-0.1193694989974777,-0.09149910514385394,0.1313368617381956,0.1870182360485904,827.6190476190476,808.2783882783883,797.3992673992674,816.7399267399268,642.2710622710623,-0.086060,0.180176,0.985352,1.338348,-1.248627,-0.089722,712380.952381,119928205.128205,90513479.853480,76.146713,1,1,1,1,1,75.000000
2025-05-02 14:45:38.697,0.4725023063037121,0.5799360346289542,0.9495372093796756,0.5337208941504081,0.249969271028575,0.2144044259790315,0.9981422777183891,0.1254813835936616,0.3312179209415174,0.2563967019076826,1.038197070427417,0.3274055844641158,0.2840377532715634,0.2660375206993886,0.6738099051906704,0.2164993269775844,-0.1246051601719852,0.01673811005026993,0.1449221962325341,0.06314498077147337,834.0659340659341,811.9047619047619,803.040293040293,832.8571428571429,676.5201465201466,-0.087463,0.186646,0.985046,0.874786,-1.644897,0.112152,711575.091575,119855677.655678,90470769.230769,76.839622,1,1,1,1,1,75.000000
2025-05-02 14:45:39.008,,,,,,,,,,,,,,,,,,,,,,,,,,,,,,,,,,,,,,,,,,/muse/elements/blink
2025-05-02 14:45:39.682,0.04243257353643252,0.4631579114811794,0.9242880747766272,0.1308363482332569,0.1398133335382314,0.04424322345817325,1.051136493051919,0.1039132078343623,0.2863294772026205,0.2464875583635135,1.146124754363648,0.3220013965504939,0.1759434782665358,0.09925005951597111,0.5852584674065487,0.2945312167349363,-0.07180093429257232,-0.04001807816603222,0.1457000454571958,0.0341257054332714,823.992673992674,799.4139194139194,807.4725274725275,808.6813186813187,715.2014652014652,-0.088501,0.195068,0.989136,0.336456,-2.100983,-0.306549,714798.534799,119866153.846154,90478827.838828,77.669701,1,1,1,1,1,75.000000
2025-05-02 14:45:40.681,0.613804913786445,0.1396463339300228,0.7272214155203925,0.09649179999672525,0.311329285395368,0.3877204820256641,0.5926012315046821,0.2587425839557033,0.3755229410238584,0.2765962957823266,0.832692394578566,0.1978166540298854,0.297919855388936,-0.004399421378387459,0.5899211162433032,0.2103668639479331,0.1326475883864143,0.1662315611880234,0.05870492669526649,-0.3935126754905809,818.7545787545788,792.1611721611722,779.6703296703297,821.978021978022,902.5641025641025,-0.085022,0.194275,0.976135,0.426178,-1.577606,-0.792542,718021.978022,119987838.827839,90446593.406593,77.753464,1,1,1,1,1,75.000000
2025-05-02 14:45:40.840,,,,,,,,,,,,,,,,,,,,,,,,,,,,,,,,,,,,,,,,,,/muse/elements/blink
2025-05-02 14:45:41.683,0.613804913786445,0.3348763802418014,0.9206031469909139,0.09649179999672525,0.311329285395368,0.5479118898042009,0.7924792907056707,0.2587425839557033,0.3755229410238584,0.219729843966508,1.023986183002178,0.1978166540298854,0.297919855388936,0.03641889033110177,0.6548550274804242,0.2103668639479331,0.1326475883864143,0.1449445742120786,0.1662137845333098,-0.3935126754905809,828.4249084249085,793.7728937728938,795.3846153846154,831.6483516483516,687.3992673992674,-0.080688,0.180542,0.992859,0.112152,-1.929016,-0.231781,714798.534799,119884688.644689,90394212.454212,76.202225,1,1,1,1,1,75.000000
2025-05-02 14:45:42.681,-0.06854771435867171,0.2663601000198393,1.090362913651335,0.2769664510464785,0.1808637870833348,0.1413617523092267,0.8636840206775845,0.4924021624623471,0.433833432784216,0.5345068865759579,0.9978889530335892,0.6163093736582427,0.2823112239535016,0.4739185254709322,0.7388257588469823,0.4163158587004728,-0.3003800456229036,0.149032868605797,0.1991353212593738,-0.1859512000820585,829.2307692307693,811.0989010989011,782.4908424908425,815.934065934066,644.2857142857143,-0.087830,0.181213,0.987183,0.680389,-0.800018,0.127106,713186.813187,119512380.952381,90209670.329670,75.262253,1,1,1,1,1,75.000000
2025-05-02 14:45:43.681,0.2125572148297736,-0.05680518031063551,0.940634397711226,0.4913466132496115,0.1087876484348333,0.06003999372562242,0.7009479781338021,0.3771374124346884,0.4504255508746428,0.4137168676821706,1.069056312076153,0.6748526649673493,0.4012168319612562,0.3724332426838911,0.81335495577843,0.417395453850534,-0.07132882379406193,0.1042882627332938,0.1254633601169855,-0.1271903616851796,823.1868131868132,769.1941391941392,832.8571428571429,840.1098901098901,740.5860805860806,-0.078918,0.193298,0.991211,0.560760,-0.000000,0.471039,712380.952381,119513186.813187,90215311.355311,75.833748,1,1,1,1,1,75.000000
2025-05-02 14:45:43.751,,,,,,,,,,,,,,,,,,,,,,,,,,,,,,,,,,,,,,,,,,/muse/elements/blink
2025-05-02 14:45:44.073,,,,,,,,,,,,,,,,,,,,,,,,,,,,,,,,,,,,,,,,,,/muse/elements/blink
2025-05-02 14:45:44.681,0.4150082988419791,-0.07405065668599188,0.3235470230986936,0.4834897882626176,-0.07893367401038347,0.04659755269896704,0.618878545996937,0.1017652846238288,0.2678577799573349,0.2120684225382798,0.9499070287691048,0.4246623959618952,0.3949895402076274,0.2687932923806505,0.8132757385954291,0.4373034072804456,0.01631788411628142,0.07808533377751402,0.2774168738948057,-0.04526796697887989,851.7948717948718,807.4725274725275,832.8571428571429,844.9450549450549,720.0366300366301,-0.065369,0.188843,0.986084,1.547699,-2.205658,-3.461761,703516.483516,119262564.102564,89875238.095238,78.753380,1,1,1,1,1,75.000000
2025-05-02 14:45:45.568,,,,,,,,,,,,,,,,,,,,,,,,,,,,,,,,,,,,,,,,,,/muse/elements/blink
2025-05-02 14:45:45.686,0.4150082988419791,-0.07405065668599188,0.09954547868678401,0.4834897882626176,-0.07893367401038347,0.04659755269896704,0.6200251375821251,0.1017652846238288,0.2678577799573349,0.2120684225382798,0.9430147818306058,0.4246623959618952,0.3949895402076274,0.2687932923806505,0.8507638687632425,0.4373034072804456,0.01631788411628142,0.07808533377751402,0.3188822748164348,-0.04526796697887989,825.2014652014652,801.4285714285714,803.040293040293,815.934065934066,1009.340659340659,-0.082947,0.197144,0.987244,0.732727,-1.592560,2.175751,704322.344322,119112673.992674,89654432.234432,79.995499,1,1,1,1,1,75.000000
2025-05-02 14:45:46.080,,,,,,,,,,,,,,,,,,,,,,,,,,,,,,,,,,,,,,,,,,/muse/elements/blink
2025-05-02 14:45:46.530,,,,,,,,,,,,,,,,,,,,,,,,,,,,,,,,,,,,,,,,,,/muse/elements/blink
2025-05-02 14:45:46.681,0.4150082988419791,-0.07405065668599188,0.09954547868678401,0.4834897882626176,-0.07893367401038347,0.04659755269896704,0.6200251375821251,0.1017652846238288,0.2678577799573349,0.2120684225382798,0.9430147818306058,0.4246623959618952,0.3949895402076274,0.2687932923806505,0.8507638687632425,0.4373034072804456,0.01631788411628142,0.07808533377751402,0.3188822748164348,-0.04526796697887989,856.2271062271062,790.1465201465202,763.1501831501831,834.4688644688645,780.8791208791209,-0.080017,0.177002,0.977051,-0.814972,-1.211243,2.340240,705934.065934,119232747.252747,89996117.216117,79.735886,1,2,1,1,2,75.000000
2025-05-02 14:45:47.128,,,,,,,,,,,,,,,,,,,,,,,,,,,,,,,,,,,,,,,,,,/muse/elements/blink
2025-05-02 14:45:47.682,0.4150082988419791,-0.07405065668599188,0.09954547868678401,0.4834897882626176,-0.07893367401038347,0.04659755269896704,0.6200251375821251,0.1017652846238288,0.2678577799573349,0.2120684225382798,0.9430147818306058,0.4246623959618952,0.3949895402076274,0.2687932923806505,0.8507638687632425,0.4373034072804456,0.01631788411628142,0.07808533377751402,0.3188822748164348,-0.04526796697887989,807.0695970695971,799.4139194139194,752.2710622710623,810.6959706959707,840.9157509157509,-0.104553,0.187134,0.990417,0.299072,-1.263580,-2.093506,707545.787546,119224688.644689,89946153.846154,79.711655,1,2,1,1,2,75.000000
2025-05-02 14:45:48.003,,,,,,,,,,,,,,,,,,,,,,,,,,,,,,,,,,,,,,,,,,/muse/elements/blink
2025-05-02 14:45:48.431,,,,,,,,,,,,,,,,,,,,,,,,,,,,,,,,,,,,,,,,,,/muse/elements/blink
2025-05-02 14:45:48.681,0.4150082988419791,1.197194499794558,0.09954547868678401,0.4834897882626176,-0.07893367401038347,1.207526707811565,0.6200251375821251,0.1017652846238288,0.2678577799573349,0.9354031544403394,0.9430147818306058,0.4246623959618952,0.3949895402076274,0.5453866690779088,0.8507638687632425,0.4373034072804456,0.01631788411628142,0.4212307150535456,0.3188822748164348,-0.04526796697887989,830.4395604395604,823.1868131868132,809.8901098901099,821.1721611721612,895.7142857142858,-0.084290,0.174072,0.980042,-0.306549,-3.745880,-0.927124,702710.622711,119236776.556777,89830915.750916,80.223572,1,2,1,1,2,75.000000
2025-05-02 14:45:49.458,,,,,,,,,,,,,,,,,,,,,,,,,,,,,,,,,,,,,,,,,,/muse/elements/blink
2025-05-02 14:45:49.681,0.4150082988419791,1.406760943092246,0.09954547868678401,0.4834897882626176,-0.07893367401038347,1.261701077172023,0.6200251375821251,0.1017652846238288,0.2678577799573349,0.9407779699837703,0.9430147818306058,0.4246623959618952,0.3949895402076274,0.6626386478794299,0.8507638687632425,0.4373034072804456,0.01631788411628142,0.5484422098875945,0.3188822748164348,-0.04526796697887989,814.7252747252747,775.2380952380953,1040.3663003663,844.9450549450549,863.0769230769231,-0.078125,0.185486,0.985901,-0.089722,-1.457977,0.201874,689010.989011,119335091.575092,89830109.890110,80.298065,1,2,1,1,2,75.000000
2025-05-02 14:45:50.259,,,,,,,,,,,,,,,,,,,,,,,,,,,,,,,,,,,,,,,,,,/muse/elements/blink
2025-05-02 14:45:50.457,,,,,,,,,,,,,,,,,,,,,,,,,,,,,,,,,,,,,,,,,,/muse/elements/blink
2025-05-02 14:45:50.691,0.4150082988419791,1.540375773414983,0.09954547868678401,0.4834897882626176,-0.07893367401038347,1.187686895007889,0.6200251375821251,0.1017652846238288,0.2678577799573349,0.6670144522449796,0.9430147818306058,0.4246623959618952,0.3949895402076274,0.6687600385489588,0.8507638687632425,0.4373034072804456,0.01631788411628142,0.5425340923277555,0.3188822748164348,-0.04526796697887989,842.5274725274726,819.5604395604396,678.1318681318681,850.5860805860806,598.7545787545788,-0.084045,0.193054,0.987793,1.069183,-2.123413,1.839294,701098.901099,119094139.194139,89531135.531136,80.163078,1,2,1,1,2,75.000000
2025-05-02 14:45:51.284,,,,,,,,,,,,,,,,,,,,,,,,,,,,,,,,,,,,,,,,,,/muse/elements/blink
2025-05-02 14:45:51.479,,,,,,,,,,,,,,,,,,,,,,,,,,,,,,,,,,,,,,,,,,/muse/elements/blink
2025-05-02 14:45:51.681,0.4150082988419791,1.540375773414983,0.09954547868678401,0.4834897882626176,-0.07893367401038347,1.187686895007889,0.6200251375821251,0.1017652846238288,0.2678577799573349,0.6670144522449796,0.9430147818306058,0.4246623959618952,0.3949895402076274,0.6687600385489588,0.8507638687632425,0.4373034072804456,0.01631788411628142,0.5425340923277555,0.3188822748164348,-0.04526796697887989,824.3956043956044,809.8901098901099,744.2124542124542,832.0512820512821,696.2637362637363,-0.074707,0.179626,0.979736,0.358887,-3.140259,-1.054230,701904.761905,118883003.663004,89513406.593407,82.138336,1,2,1,1,2,75.000000
2025-05-02 14:45:52.262,,,,,,,,,,,,,,,,,,,,,,,,,,,,,,,,,,,,,,,,,,/muse/elements/blink
2025-05-02 14:45:52.681,0.4150082988419791,1.540375773414983,0.09954547868678401,0.4834897882626176,-0.07893367401038347,1.187686895007889,0.6200251375821251,0.1017652846238288,0.2678577799573349,0.6670144522449796,0.9430147818306058,0.4246623959618952,0.3949895402076274,0.6687600385489588,0.8507638687632425,0.4373034072804456,0.01631788411628142,0.5425340923277555,0.3188822748164348,-0.04526796697887989,805.8608058608058,804.6520146520147,735.3479853479854,821.978021978022,702.3076923076924,-0.072388,0.183228,0.987854,0.485992,-1.682281,-0.082245,704322.344322,118883003.663004,89711648.351648,83.587608,1,2,1,1,2,75.000000
2025-05-02 14:45:53.683,0.4150082988419791,0.4590326373610105,0.09954547868678401,0.5055631395295836,-0.07893367401038347,0.1403339351428511,0.6200251375821251,0.5236877909724572,0.2678577799573349,0.235319972732064,0.9430147818306058,0.2662286776110481,0.3949895402076274,0.5284632906524807,0.8507638687632425,0.2236742415420097,0.01631788411628142,0.1068441688514293,0.3188822748164348,-0.06616187127554887,805.4578754578755,792.5641025641025,766.7765567765568,820.7692307692308,667.6556776556777,-0.078613,0.192810,0.985962,0.201874,-1.398163,0.545807,705128.205128,118742783.882784,89646373.626374,83.587608,1,2,1,1,2,75.000000
2025-05-02 14:45:54.688,0.4806965009623917,0.7457414233198708,0.09954547868678401,0.3720643735248924,0.6875890398564807,0.541099124898387,0.6200251375821251,0.2674970486244104,0.6665473317611618,0.699603366417626,0.9430147818306058,0.5092225110848492,0.3671057856791159,0.4118965124530982,0.8507638687632425,0.3561769762302378,0.2864815615132788,0.06833883861741341,0.3188822748164348,0.1571188735293332,812.3076923076924,789.3406593406594,742.1978021978023,822.7838827838829,1307.912087912088,-0.091064,0.199524,0.983521,1.831818,-0.590668,1.121521,709157.509158,118712967.032967,89854285.714286,83.587608,1,1,1,1,1,75.000000
2025-05-02 14:45:54.846,,,,,,,,,,,,,,,,,,,,,,,,,,,,,,,,,,,,,,,,,,/muse/elements/blink
2025-05-02 14:45:55.692,0.4851801689142867,1.063282409453836,0.09954547868678401,0.4143968233402419,0.9595986199491843,0.8659241334921339,0.6200251375821251,0.007921991252131845,0.6665473317611618,0.7306886571904149,0.9430147818306058,0.4089237517244358,0.3590754746141667,0.4146389004093685,0.8507638687632425,0.4496219103803467,0.3868290606709598,0.1809164982919216,0.3188822748164348,0.1299996124151322,790.1465201465202,794.1758241758242,772.8205128205128,832.8571428571429,1037.948717948718,-0.096741,0.205688,1.002319,-3.723450,0.418701,-2.317810,701098.901099,118699267.399267,89628644.688645,82.016190,1,1,1,1,1,75.000000
2025-05-02 14:45:56.683,0.4851801689142867,0.8878114108777428,0.09954547868678401,0.7364793117214264,0.9595986199491843,0.6874685355150958,0.6200251375821251,0.1230424326106286,0.6665473317611618,0.5283602119433798,0.9430147818306058,0.3994131623545933,0.3590754746141667,0.4584616190656979,0.8507638687632425,0.5399730909335952,0.3868290606709598,0.3938874950107037,0.3188822748164348,0.3564872454311788,815.934065934066,809.8901098901099,782.4908424908425,824.7985347985348,592.3076923076924,-0.092346,0.173462,0.983704,0.328979,-1.069183,-0.553284,707545.787546,118788717.948718,89728571.428571,77.854370,1,1,1,1,1,75.000000
2025-05-02 14:45:57.295,,,,,,,,,,,,,,,,,,,,,,,,,,,,,,,,,,,,,,,,,,/muse/elements/blink
2025-05-02 14:45:57.684,0.4851801689142867,0.5599797620536762,0.09954547868678401,0.836743729192703,0.9595986199491843,0.4453928908968836,0.6200251375821251,0.3316070107618825,0.6665473317611618,0.401722721429943,0.9430147818306058,0.441599132237065,0.3590754746141667,0.5609293062049563,0.8507638687632425,0.6379603751709672,0.3868290606709598,0.3250173775884026,0.3188822748164348,0.3294446368224944,849.7802197802198,754.6886446886447,779.2673992673992,844.1391941391942,1169.70695970696,-0.095215,0.182922,0.986023,0.059814,-1.929016,-0.508423,709157.509158,118717802.197802,89732600.732601,76.930817,1,1,1,1,1,75.000000
2025-05-02 14:45:58.368,,,,,,,,,,,,,,,,,,,,,,,,,,,,,,,,,,,,,,,,,,/muse/elements/blink
2025-05-02 14:45:58.686,0.4851801689142867,0.5599797620536762,0.09954547868678401,0.9001372261431219,0.9595986199491843,0.4453928908968836,0.6200251375821251,0.4843118744046471,0.6665473317611618,0.401722721429943,0.9430147818306058,0.4175217660602673,0.3590754746141667,0.5609293062049563,0.8507638687632425,0.6662070938384815,0.3868290606709598,0.3250173775884026,0.3188822748164348,0.184963844721711,814.7252747252747,796.1904761904763,772.014652014652,840.9157509157509,683.7728937728938,-0.089417,0.186279,0.986938,0.523376,-1.218719,0.314026,711575.091575,118684761.904762,89658461.538462,77.149612,1,1,1,1,1,75.000000
2025-05-02 14:45:59.681,0.4851801689142867,0.5708565768900236,0.09954547868678401,0.7885317385448781,0.9595986199491843,0.4127059034977286,0.6200251375821251,0.8140790080334442,0.6665473317611618,0.4839525817016357,0.9430147818306058,0.6410065591366855,0.3590754746141667,0.4928628435809068,0.8507638687632425,0.5218668634455803,0.3868290606709598,0.2597041098534763,0.3188822748164348,0.1633078302499281,821.5750915750916,808.2783882783883,782.4908424908425,819.1575091575091,580.6227106227107,-0.086487,0.184082,0.988281,0.067291,-1.562653,0.687866,711575.091575,118730695.970696,89653626.373626,76.928795,1,1,1,1,1,75.000000
2025-05-02 14:46:00.684,0.4851801689142867,0.8268799347477364,0.09954547868678401,0.8574830257402464,0.9595986199491843,0.3369142493375604,0.6200251375821251,0.6170235729288833,0.6665473317611618,0.5645168989169197,0.9430147818306058,0.6682665635471372,0.3590754746141667,0.6246868607386692,0.8507638687632425,0.2838294373902689,0.3868290606709598,0.271406716702845,0.3188822748164348,-0.05300039926262098,832.4542124542124,802.2344322344322,784.5054945054945,813.1135531135532,750.6593406593407,-0.086792,0.179260,0.985535,1.009369,-2.078552,0.373840,711575.091575,118721831.501832,89641538.461538,76.324318,1,1,1,1,1,75.000000
2025-05-02 14:46:01.685,0.4909063323336344,0.578827762353887,0.09954547868678401,0.338974413175173,-0.04644408365784027,0.3858693240146118,0.6200251375821251,0.2844290113490484,0.476094581059046,0.7610864096577509,0.9430147818306058,0.8181901031080945,0.4528284370632616,0.4722803535069959,0.8507638687632425,0.3270240516937918,0.1136371700605871,0.03990914710202957,0.3188822748164348,0.08951467051663781,814.3223443223443,807.0695970695971,779.2673992673992,821.1721611721612,803.4432234432235,-0.083008,0.182068,0.987549,0.373840,-1.069183,-0.807495,709157.509158,118559853.479853,89534358.974359,76.630890,1,1,1,1,1,75.000000
2025-05-02 14:46:02.684,0.674654625951454,1.076002829770746,0.09954547868678401,0.7803720039551997,0.007092125978181776,0.5769645936326486,0.6200251375821251,0.3533237745759036,0.6911563302207357,0.7500997405116654,0.9430147818306058,0.7837542182430453,0.622612560571673,0.4337980117860449,0.8507638687632425,0.440933014765848,0.2125643825595284,0.03674461106663286,0.3188822748164348,0.1889371881711672,828.021978021978,804.6520146520147,771.6117216117216,821.5750915750916,537.5091575091575,-0.072693,0.183105,0.988708,1.286011,-3.843079,0.426178,710769.230769,118504249.084249,89510183.150183,77.377144,1,1,1,1,1,75.000000
2025-05-02 14:46:03.680,0.2746541750476628,0.5639076966238497,1.141497996878715,0.5836379705042092,0.5021612559697946,0.07428905292449357,1.31520558877986,0.6922857286034411,0.7599650788741381,0.4356900472540272,1.272727833016544,0.6101028816041427,0.6103047677491554,0.4349094115412198,0.8977356489602891,0.4011574803989587,0.1866805478351498,0.05881528119511116,0.4132928341876077,0.1346935903002653,823.5897435897436,803.8461538461539,805.8608058608058,817.1428571428571,828.8278388278388,-0.081726,0.190613,0.984192,0.560760,-1.330872,-0.186920,710769.230769,118497802.197802,89531135.531136,75.726616,1,1,1,1,1,75.000000
2025-05-02 14:46:04.681,0.6679820374446679,0.6725227442749007,1.114037783521172,0.6859583502991465,0.5272674030683007,0.236613679033413,1.365214999303821,0.728519599002,0.7107426386329965,0.491730164328407,1.309326386794234,0.6337510759797217,0.5711424018152406,0.3959948309438411,0.9221056728767973,0.3815649120022221,0.08871306702579333,-0.02045818991561699,0.4172557027910906,0.05677810030601935,847.7655677655678,796.996336996337,783.2967032967033,854.2124542124542,637.4358974358975,-0.079468,0.185364,0.985596,0.590668,-1.383209,0.014954,710769.230769,118497802.197802,89434432.234432,74.656792,1,1,1,1,1,75.000000
2025-05-02 14:46:04.682,,,,,,,,,,,,,,,,,,,,,,,,,,,,,,,,,,,,,,,,,,/muse/elements/blink
2025-05-02 14:46:05.681,1.003692234427153,0.8841501019787291,1.198545739864091,0.4487485709194494,0.3012505811720126,0.450615552348214,1.367260907845943,0.2533178396229955,0.4700748059705173,0.6083576043899837,1.20810054495908,0.39009480687394,0.4472696456448729,0.4573690726897878,0.902204488023733,0.3230782570771652,0.1541091467533175,0.2090222867192763,0.4434155567491774,-0.1293919150103608,826.007326007326,814.3223443223443,778.4615384615385,816.3369963369963,581.025641025641,-0.069946,0.191956,0.988586,0.336456,-3.671112,0.478516,713186.813187,118490549.450549,89508571.428571,77.222763,1,1,1,1,1,75.000000
2025-05-02 14:46:06.607,,,,,,,,,,,,,,,,,,,,,,,,,,,,,,,,,,,,,,,,,,/muse/elements/blink
2025-05-02 14:46:06.681,0.2693012788046721,0.5880864516796832,1.206136792619509,0.4568240886815261,0.3293370468368225,0.1802542103239839,1.314699338045843,0.4748258541011239,0.4371412196260364,0.2726427347872245,1.206168687236347,0.001910882744299069,0.473220070785999,0.4404279858055422,0.8999166401221751,0.3252964264742791,0.1071083857464053,0.3961183092613676,0.4688630368148032,-0.1209474189852532,863.0769230769231,791.3553113553114,805.8608058608058,840.1098901098901,1002.490842490843,-0.066772,0.193481,0.984863,0.635529,-2.243042,0.119629,714798.534799,118645274.725275,89555311.355311,80.164154,1,1,1,1,1,75.000000
2025-05-02 14:46:07.681,0.250130169659542,0.680450656765787,1.206136792619509,0.4420981163250399,0.1424292437388802,0.6182229424444007,1.314699338045843,0.2850670388222445,0.2611359041132031,0.4265225172669639,1.206168687236347,-0.01040323888940443,0.5382018762979393,0.312508467595535,0.8999166401221751,0.2917011184609751,0.1426294070567386,0.1956280362801002,0.4688630368148032,-0.03973860112125646,797.8021978021978,813.1135531135532,809.4871794871796,811.9047619047619,676.1172161172161,-0.068726,0.181396,0.986450,0.485992,-1.106567,-0.209351,723663.003663,118505054.945055,89421538.461538,79.833084,1,1,1,1,1,75.000000
2025-05-02 14:46:08.680,0.6977162236582284,0.675148558366121,1.206136792619509,0.7791722776514867,0.4370094024007133,0.5996921445988108,1.314699338045843,0.8531364126876253,0.3300575801622454,0.5285577103088446,1.206168687236347,0.6806556298462098,0.5163246428560333,0.4558668645308381,0.8999166401221751,0.5032594195020996,0.3846918272237222,0.1020973940295282,0.4688630368148032,0.1055458207363386,787.3260073260074,807.8754578754579,760.3296703296703,811.5018315018315,749.4505494505495,-0.070923,0.182800,0.984985,0.583191,-1.308441,-0.127106,712380.952381,118457509.157509,89381245.421245,81.714043,1,1,1,1,1,75.000000
2025-05-02 14:46:09.681,0.5473882457230388,0.7869139351799328,1.206136792619509,0.6537670551588847,0.3697205636738556,0.5622089675401194,1.314699338045843,0.6562685090413952,0.5917313708388383,0.885276224952114,1.206168687236347,0.6975761418271741,0.533875469883984,0.3711036143283385,0.8999166401221751,0.4567677770397719,0.1596906112030823,0.1102751776877828,0.4688630368148032,0.03358280330940676,821.978021978022,794.5787545787546,792.1611721611722,816.3369963369963,775.2380952380953,-0.076355,0.191284,0.981934,0.351410,-1.779480,0.082245,711575.091575,118488131.868132,89384468.864469,83.272804,1,1,1,1,1,75.000000
2025-05-02 14:46:10.681,0.1894493685284547,0.7079636873357078,1.206136792619509,0.2954824619947,0.4101957818840433,0.4619797705733141,1.314699338045843,0.3828755194554265,0.6915617496897225,0.8808713463371711,1.206168687236347,0.7786507149620248,0.5361613291935121,0.2551041316663677,0.8999166401221751,0.3386955630968181,0.1043129843910484,0.03670237241458953,0.4688630368148032,0.05535826612422578,808.6813186813187,801.8315018315019,776.8498168498169,807.4725274725275,681.3553113553114,-0.078552,0.191101,0.986084,0.755157,-1.173859,-0.112152,708351.648352,118165787.545788,89239413.919414,81.481392,1,1,1,1,1,75.000000
2025-05-02 14:46:11.687,0.5222984752582773,0.3933604901727271,1.206136792619509,0.5196465498821632,0.4358836483134685,0.3724391788111172,1.314699338045843,0.6194106725813566,0.582014999361902,0.6570009618207344,1.206168687236347,0.6826184816827953,0.3712425858679437,0.3135546241020722,0.8999166401221751,0.3809619837233686,0.02760663439146153,-0.1560653543095815,0.4688630368148032,-0.05596040656797475,820.3663003663004,805.4578754578755,827.2161172161173,815.5311355311355,603.992673992674,-0.077515,0.188599,0.982300,0.665436,-1.876678,0.209351,707545.787546,118120659.340659,89258754.578755,79.211555,1,1,1,1,1,75.000000
2025-05-02 14:46:12.681,0.5414658167884745,0.5524073769442281,1.206136792619509,0.5682623802673535,0.2179113058854815,0.06794101212266652,1.314699338045843,0.4517842097751711,0.4348058137039943,0.4481101475236611,1.206168687236347,0.3715284673704374,0.3331687377729871,0.3540758798692622,0.8999166401221751,0.1404355944395245,-0.05770133353847434,-0.2280746824912196,0.4688630368148032,-0.2034208194778713,813.919413919414,790.952380952381,801.025641025641,805.8608058608058,825.6043956043957,-0.072815,0.187256,0.987183,0.560760,-0.755157,0.052338,709157.509158,118192380.952381,89295018.315018,79.113785,1,1,1,1,1,75.000000
2025-05-02 14:46:13.681,0.1349061343217098,0.4835649936702006,1.228497295022438,0.1671796642362023,-0.1566543439723165,0.190802234933253,0.8371303734495154,0.2393311267221331,0.4042727198950685,0.3616867428134519,1.161538913266215,0.6115094740847913,0.3548329791749974,0.2667198339733833,1.162898804036064,0.2817666787530606,-0.07830170167154399,-0.09091316164213699,0.3929698534597814,-0.1789086015467229,780.8791208791209,805.4578754578755,778.4615384615385,785.3113553113553,764.7619047619048,-0.077087,0.186829,0.983582,0.500946,-1.652374,-0.284119,705128.205128,118048131.868132,89245054.945055,78.594826,1,1,1,1,1,75.000000
2025-05-02 14:46:13.922,,,,,,,,,,,,,,,,,,,,,,,,,,,,,,,,,,,,,,,,,,/muse/elements/blink
2025-05-02 14:46:14.681,0.273322639455837,0.8479292320796372,1.239778164911071,-0.1145414467930656,-0.1185419721657384,0.7735234220003862,0.7632239517222807,0.1448005154127742,0.2802512646047162,0.7819657577368487,1.145524813952209,0.5839867949037875,0.2996432011237349,0.4665581721732233,1.141862659746529,0.4779097873970948,0.04673640034899645,0.2367365596852727,0.3632337196341169,-0.1839886153760925,815.934065934066,809.4871794871796,783.6996336996338,830.0366300366301,805.8608058608058,-0.073914,0.190552,0.987244,0.336456,-1.644897,-1.203766,701098.901099,118021538.461538,89172527.472527,78.727966,1,1,1,1,1,75.000000
2025-05-02 14:46:15.681,0.687908192844077,0.6766405285767653,1.239778164911071,0.506061741441624,0.4290130455261978,0.6170801052636513,0.7632239517222807,-0.1849476448463412,0.8555764128719576,0.7519378909145426,1.145524813952209,0.5383238282188957,0.2624298871404567,0.4725909402057988,1.141862659746529,0.3274381376924305,0.1957722948693878,0.3045279161777552,0.3632337196341169,-0.009462330318716565,834.0659340659341,811.9047619047619,778.0586080586081,814.7252747252747,947.2893772893773,-0.062744,0.192688,0.990417,0.904694,-1.951447,1.061707,701098.901099,118151282.051282,89185421.245421,80.065414,1,1,1,1,1,75.000000
2025-05-02 14:46:16.681,0.8091153730963808,0.1866615459309633,1.239778164911071,0.6355805712781509,0.3560004348688766,0.2601442403962359,0.7632239517222807,-0.05972921687744909,0.8821779289854571,0.3488298505039708,1.145524813952209,0.7493397702197779,0.4128595990547764,0.2985250643513366,1.141862659746529,0.4279601451923231,0.1702864072447207,0.06501293153618938,0.3632337196341169,-0.004178425072827759,828.021978021978,800.2197802197802,782.893772893773,836.4835164835165,686.1904761904763,-0.080261,0.191345,0.981812,-0.179443,-1.495361,-0.560760,703516.483516,118054578.754579,89143516.483516,81.720184,1,1,1,1,1,75.000000
2025-05-02 14:46:16.776,,,,,,,,,,,,,,,,,,,,,,,,,,,,,,,,,,,,,,,,,,/muse/elements/blink
2025-05-02 14:46:17.686,0.8398327929706507,1.038318221780849,1.239778164911071,0.5570362898214292,0.1521872366541984,0.721274054595731,0.7632239517222807,-0.1983346576339183,0.4195739618367314,0.6397797410001241,1.145524813952209,0.592483325188557,0.3312129397356239,0.3843120708914605,1.141862659746529,0.4304480852626812,0.2012805379016444,0.1161038653663154,0.3632337196341169,0.1250775078232181,835.6776556776557,820.3663003663004,807.4725274725275,825.6043956043957,576.5934065934066,-0.082031,0.190552,0.985107,0.500946,-1.099091,-0.216827,702710.622711,118164981.684982,89211208.791209,82.863808,1,1,1,1,1,75.000000
2025-05-02 14:46:18.689,0.8533315450063643,0.9900118173078171,1.239778164911071,0.8407007641056229,0.2460758574320312,0.4768239868797055,0.7632239517222807,0.4487039878772089,0.2090815587055277,0.637287200029269,1.145524813952209,0.23459100120845,0.3716524960606986,0.3490810387772174,1.141862659746529,0.3303467200099855,0.08464559445035798,0.02945917593302049,0.3632337196341169,0.1168054471709681,826.8131868131868,811.5018315018315,824.3956043956044,819.5604395604396,1109.67032967033,-0.080994,0.189758,0.983398,0.411224,-1.143951,-0.381317,701904.761905,118139194.139194,89116923.076923,84.213654,1,1,1,1,1,75.000000
2025-05-02 14:46:19.596,,,,,,,,,,,,,,,,,,,,,,,,,,,,,,,,,,,,,,,,,,/muse/elements/blink
2025-05-02 14:46:19.681,0.5441029279987766,0.614211925203442,1.239778164911071,0.7395578581680931,0.3112795002721763,0.3906262189046749,0.7632239517222807,0.3869283268042784,0.3179611221962881,0.580234314141496,1.145524813952209,0.6229800955705158,0.3702898353902708,0.09758589735240931,1.141862659746529,0.2953693941169935,0.08318915794393077,-0.1484749628221806,0.3632337196341169,0.06046821386650719,848.974358974359,791.7582417582418,798.6080586080586,871.1355311355312,665.6410256410256,-0.080017,0.188232,0.981506,0.814972,-2.115936,-0.000000,705128.205128,118208498.168498,89178168.498168,84.300919,1,1,1,1,1,75.000000
2025-05-02 14:46:20.681,-0.3011100708941442,0.3486180511579518,1.239778164911071,0.2628220036893056,0.2316054414216653,0.2586445425049745,0.7632239517222807,0.08467605371199204,0.1072413220097063,0.05264867674594771,1.145524813952209,0.5926524609444054,0.385231019205978,0.2318854948131987,1.141862659746529,0.1808911598194959,0.01122340235731553,-0.1956990557458497,0.3632337196341169,-0.02544905446032671,813.1135531135532,811.0989010989011,830.0366300366301,827.6190476190476,853.8095238095239,-0.078735,0.187195,0.981201,0.209351,-1.076660,-0.022430,705128.205128,118202857.142857,89145934.065934,83.470367,1,1,1,1,1,75.000000
2025-05-02 14:46:21.049,,,,,,,,,,,,,,,,,,,,,,,,,,,,,,,,,,,,,,,,,,/muse/elements/blink
2025-05-02 14:46:21.680,-0.3011100708941442,0.3470779610421462,1.239778164911071,0.2628220036893056,0.2316054414216653,0.2385201733928423,0.7632239517222807,0.08467605371199204,0.1072413220097063,-0.1099431825714265,1.145524813952209,0.5926524609444054,0.385231019205978,0.2631354456581314,1.141862659746529,0.1808911598194959,0.01122340235731553,-0.1911778888313093,0.3632337196341169,-0.02544905446032671,825.6043956043957,794.5787545787546,778.4615384615385,816.3369963369963,866.3003663003664,-0.081238,0.191406,0.990540,0.209351,-1.046753,-0.635529,707545.787546,117895018.315018,89024249.084249,81.009109,1,1,1,1,1,75.000000
2025-05-02 14:46:22.351,,,,,,,,,,,,,,,,,,,,,,,,,,,,,,,,,,,,,,,,,,/muse/elements/blink
2025-05-02 14:46:22.681,-0.3011100708941442,0.6990111240251261,1.239778164911071,0.2628220036893056,0.2316054414216653,0.4105985357313663,0.7632239517222807,0.08467605371199204,0.1072413220097063,0.6744453373001569,1.145524813952209,0.5926524609444054,0.385231019205978,0.5266650635063551,1.141862659746529,0.1808911598194959,0.01122340235731553,0.257329840325678,0.3632337196341169,-0.02544905446032671,806.2637362637363,801.025641025641,747.8388278388279,817.1428571428571,749.8534798534798,-0.071350,0.186768,0.984009,0.299072,-1.398163,-0.246735,708351.648352,117711282.051282,88924322.344322,80.614258,1,2,1,1,2,75.000000
2025-05-02 14:46:23.682,-0.3011100708941442,0.7918184392066169,1.239778164911071,0.2628220036893056,0.2316054414216653,0.5134995227616298,0.7632239517222807,0.08467605371199204,0.1072413220097063,0.6392970204099369,1.145524813952209,0.5926524609444054,0.385231019205978,0.608782976997043,1.141862659746529,0.1808911598194959,0.01122340235731553,0.2051099895562041,0.3632337196341169,-0.02544905446032671,842.9304029304029,805.4578754578755,818.7545787545788,821.978021978022,646.3003663003664,-0.075684,0.194763,0.980957,1.368256,-1.899109,0.052338,711575.091575,117689523.809524,88955750.915751,80.741852,1,2,1,1,2,75.000000
2025-05-02 14:46:24.681,0.6176914756204513,0.3688807631144527,1.239778164911071,0.5114418208236723,0.2393858432488485,0.2254259235370821,0.7632239517222807,0.2216813951427067,0.5390664989580118,0.4029011017699267,1.145524813952209,0.6333044955834035,0.4115579817731947,0.5198167684969743,1.141862659746529,0.3457017857867472,0.07433711128159635,0.1439064066709215,0.3632337196341169,-0.1393586880430068,740.989010989011,809.8901098901099,786.1172161172161,744.2124542124542,851.7948717948718,-0.078857,0.188660,0.984131,0.299072,-1.046753,0.029907,707545.787546,117488058.608059,88907399.267399,80.968239,1,1,1,1,1,75.000000
2025-05-02 14:46:24.994,,,,,,,,,,,,,,,,,,,,,,,,,,,,,,,,,,,,,,,,,,/muse/elements/blink
2025-05-02 14:46:25.681,0.7401103750695056,1.083038069384203,1.239778164911071,0.6217430090895115,0.1497448218333605,0.3734290329562778,0.7632239517222807,0.1178073289605433,0.4132505960801169,0.4001070943530981,1.145524813952209,0.4193061441647994,0.3570717613913849,0.4854194366905381,1.141862659746529,0.2848880820938449,0.05098023705716812,0.1883490916158279,0.3632337196341169,-0.04677395699942061,801.025641025641,806.6666666666667,822.3809523809524,820.7692307692308,607.2161172161173,-0.080750,0.192749,0.987061,0.553284,-1.540222,-0.321503,705128.205128,117581538.461538,89042783.882784,80.498787,1,1,1,1,1,75.000000
2025-05-02 14:46:26.685,0.1770220082789051,0.9829887014519468,1.329700330627004,0.6626418823593708,-0.05049252509887638,0.2871584687882764,1.277068383502408,0.3846319160658767,0.2531915463635376,0.6727392445530567,1.320006804079513,0.376733096813227,0.2775863768433464,0.5078797087722378,0.8740423575616156,0.375603997139729,0.3372535155972027,0.07960584797951725,0.3222688775168219,0.006360280650904526,822.3809523809524,803.8461538461539,789.7435897435897,806.2637362637363,556.8498168498169,-0.076904,0.188171,0.985962,1.136475,-2.220612,1.054230,705128.205128,117756410.256410,89122564.102564,81.763641,1,1,1,1,1,75.000000
2025-05-02 14:46:27.681,0.3508844465610071,0.3988104975418941,1.19959451442019,0.4486347894809773,0.2439293249325321,0.3304316481675548,1.149759510030155,0.394587863989064,0.5094502343133491,0.6700076583097071,1.20639241824557,0.5890822350828664,0.2652827050529399,0.295551477700587,0.7786248549765965,0.3850662202836045,0.2501015304926553,0.004887720537538227,0.4392157373522793,-0.06022991336443716,815.934065934066,801.4285714285714,776.4468864468864,811.0989010989011,973.4798534798535,-0.082214,0.188721,0.984680,0.508423,-0.919647,0.328979,701904.761905,117790256.410256,89100000.000000,83.018860,1,1,1,1,1,75.000000
2025-05-02 14:46:28.681,0.3512616401050161,0.3675368431408464,1.165535732737134,0.5410065088311101,0.2885357520969839,0.2967532278285654,1.171041204843556,0.3745384466411532,0.529864456196906,0.602385592121305,1.1004078221016,0.6779244687765509,0.3068456598961437,0.2442777342465856,0.6891713929196089,0.3021016634521889,0.0312873967903682,-0.3208809508339432,0.5391176822125878,-0.09336692331851043,809.4871794871796,808.2783882783883,781.2820512820513,817.1428571428571,569.7435897435897,-0.082703,0.189514,0.988037,0.672913,-1.390686,0.463562,702710.622711,117744322.344322,89038754.578755,82.022949,1,1,1,1,1,75.000000
2025-05-02 14:46:29.440,,,,,,,,,,,,,,,,,,,,,,,,,,,,,,,,,,,,,,,,,,/muse/elements/blink
2025-05-02 14:46:29.696,0.3719886184706697,0.806814863843296,1.103052126155892,0.5528825850921915,0.2783931486797476,0.6353991819236381,1.495856050031553,0.3102820981121246,0.5817958411970511,0.8441353793434382,1.483192178852207,0.6595315709855004,0.3144619004991636,0.2605507401194479,1.185093925009647,0.2303010621492036,0.04953441047527225,-0.2390509537374515,0.2208118025327372,-0.08294127380465177,862.6739926739926,800.2197802197802,817.1428571428571,835.2747252747253,721.6483516483516,-0.084839,0.189209,0.986816,0.456085,-1.622467,-0.328979,701904.761905,117492893.772894,88935604.395604,81.528763,1,1,1,1,1,75.000000
2025-05-02 14:46:30.681,0.3068394543551941,1.149010522498555,1.093089238050621,0.410351506510087,0.2252758253267415,0.7906172138910096,1.59227936614423,0.5358717244033609,0.5817958411970511,0.81008398884616,1.460326971749692,0.5776712448375312,0.290812190857433,0.3777733902725063,1.224293799902714,0.2569582846275498,0.1345032421917016,0.04828440724750404,0.1997104030270483,-0.03610470674981708,832.4542124542124,806.6666666666667,787.3260073260074,810.2930402930403,887.2527472527473,-0.084961,0.189392,0.986206,0.687866,-2.145844,0.044861,703516.483516,117367985.347985,88904175.824176,82.184532,1,1,1,1,1,75.000000
2025-05-02 14:46:31.682,0.2607049038934464,0.2895210343974626,1.093089238050621,0.3520400716526021,0.1483337034061664,0.2338877569672521,1.59227936614423,0.274724328908912,0.6697398297270655,0.4647447772476552,1.460326971749692,0.7004400843681174,0.3638443504699371,0.3441702137843691,1.224293799902714,0.3677755349843482,0.05164671432492011,0.1625480681524936,0.1997104030270483,-0.07650291678899016,815.934065934066,797.3992673992674,785.3113553113553,827.2161172161173,587.4725274725275,-0.083740,0.191650,0.985962,0.949554,-1.614990,0.052338,708351.648352,117417948.717949,88931575.091575,83.579491,1,1,1,1,1,75.000000
2025-05-02 14:46:32.693,0.1001464945663389,0.2969914038417532,1.093089238050621,0.3403408326083982,0.451956118365324,0.2165055240245173,1.59227936614423,0.0260012871406616,0.9074576938325895,0.4066954845018089,1.460326971749692,0.6635340505532763,0.5163201168581134,0.3206705526084399,1.224293799902714,0.4653228947994709,0.09249627834522316,0.01501638868075228,0.1997104030270483,-0.02306721246657389,829.6336996336996,814.7252747252747,843.3333333333334,834.4688644688645,676.9230769230769,-0.086548,0.197144,0.981384,0.456085,-1.323395,0.149536,706739.926740,117275311.355311,88846959.706960,81.712097,1,1,1,1,1,75.000000
2025-05-02 14:46:33.680,0.4660466695122752,0.4362285824031089,1.093089238050621,0.57609357296352,0.5514000686250762,0.2423812454257532,1.59227936614423,0.1992800886660148,0.8791501268727696,0.6081020787455027,1.460326971749692,0.8269956348800215,0.5436489780160221,0.3558809814461851,1.224293799902714,0.3636682142499196,0.1042200816969348,0.01343038191512439,0.1997104030270483,0.07084955455786669,820.7692307692308,805.0549450549451,766.3736263736264,817.1428571428571,772.014652014652,-0.087036,0.193726,0.979126,0.299072,-2.071075,-0.261688,705934.065934,117255164.835165,88840512.820513,79.895676,1,1,1,1,1,75.000000
2025-05-02 14:46:34.030,,,,,,,,,,,,,,,,,,,,,,,,,,,,,,,,,,,,,,,,,,/muse/elements/blink
2025-05-02 14:46:34.680,0.5142214866910083,0.8194310475742536,1.093089238050621,0.5927763734765765,0.4371828072133632,0.5860171365586269,1.59227936614423,0.2800748743715112,0.7592095334773639,0.5636958611858954,1.460326971749692,0.6152826893988671,0.5429247680931976,0.434519630508546,1.224293799902714,0.2378046587188092,0.155240379896432,0.216374130631726,0.1997104030270483,0.08274407528387949,833.6630036630037,801.025641025641,805.4578754578755,814.7252747252747,673.2967032967033,-0.088989,0.193481,0.989685,0.508423,-1.644897,0.358887,706739.926740,117422783.882784,88983956.043956,80.512024,1,1,1,1,1,75.000000
2025-05-02 14:46:35.687,0.0001260818031685089,0.7769973141944626,1.093089238050621,0.6387235124024379,0.3382066759260354,0.4566780185209124,1.59227936614423,0.261823875595303,0.355018644517471,0.4013798312703397,1.460326971749692,0.3935096015350902,0.495836374187904,0.197382743645195,1.224293799902714,0.4169534276648417,0.2093822782217233,0.03452940045702516,0.1997104030270483,0.07586636487538648,842.9304029304029,822.3809523809524,813.5164835164835,826.007326007326,725.6776556776557,-0.090332,0.196899,0.979065,0.874786,-0.874786,0.059814,706739.926740,117405054.945055,89006520.146520,81.122482,1,1,1,1,1,75.000000
2025-05-02 14:46:36.680,0.718303061545598,0.6580576526377268,1.093089238050621,0.6459593175951373,0.2705677741209128,0.2053419733479312,1.59227936614423,0.2076647623801753,0.3995979766785978,0.3665522611030904,1.460326971749692,0.461433645285825,0.4144611664037368,0.1540688534605041,1.224293799902714,0.4349640997091745,0.1220129801663861,-0.07489934026690032,0.1997104030270483,0.0567727113087259,828.8278388278388,805.8608058608058,847.7655677655678,814.3223443223443,646.3003663003664,-0.093262,0.195679,0.984314,0.276642,-2.078552,-0.246735,707545.787546,117374432.234432,88976703.296703,80.213722,1,1,1,1,1,75.000000
2025-05-02 14:46:37.601,,,,,,,,,,,,,,,,,,,,,,,,,,,,,,,,,,,,,,,,,,/muse/elements/blink
2025-05-02 14:46:37.680,1.338508827147109,1.103773215750833,1.093089238050621,0.5694157271759779,0.7459644580832603,0.7446398369101449,1.59227936614423,0.1335136259180139,0.9004961892497497,0.6640733221812692,1.460326971749692,0.4461148436546697,0.4359617238789073,0.3125010565258048,1.224293799902714,0.4525113192922108,-0.1231656593352031,-0.03248988429268765,0.1997104030270483,0.072944617624135,830.4395604395604,799.8168498168499,784.5054945054945,854.6153846153846,557.2527472527472,-0.089844,0.196106,0.984253,0.635529,-1.958923,0.142059,704322.344322,117311575.091575,89016190.476190,79.943329,1,1,1,1,1,75.000000
2025-05-02 14:46:38.680,1.338508827147109,0.8612654280515295,1.093089238050621,0.5694157271759779,0.7459644580832603,0.2773393377051672,1.59227936614423,0.1335136259180139,0.9004961892497497,0.6212562345426392,1.460326971749692,0.4461148436546697,0.4359617238789073,0.2459444299033249,1.224293799902714,0.4525113192922108,-0.1231656593352031,0.0450181935603089,0.1997104030270483,0.072944617624135,834.0659340659341,823.5897435897436,833.6630036630037,819.1575091575091,628.5714285714286,-0.093628,0.197754,0.982605,0.859833,-0.897217,0.164490,703516.483516,117170549.450549,88905787.545788,82.699188,1,1,1,1,1,75.000000
2025-05-02 14:46:39.610,,,,,,,,,,,,,,,,,,,,,,,,,,,,,,,,,,,,,,,,,,/muse/elements/blink
2025-05-02 14:46:39.685,-0.01828412181636068,0.5947482902823593,1.093089238050621,0.3526547011917236,0.1822430129960379,0.24584232947409,1.59227936614423,0.6461114091588658,0.7030688682507628,0.6421504036863035,1.460326971749692,0.4264320177251731,0.5711185962686443,0.3104609351471261,1.224293799902714,0.4421556460234144,0.1500829724725588,0.1496816933985252,0.1997104030270483,-0.2637852841600099,876.3736263736264,801.025641025641,796.5934065934066,876.7765567765568,750.2564102564103,-0.106445,0.196777,0.976746,0.456085,-1.099091,0.471039,700293.040293,117035970.695971,88874358.974359,83.415871,1,1,1,1,1,75.000000
2025-05-02 14:46:40.686,-0.1955631240265923,0.7557607454113532,1.093089238050621,0.3237324265797799,0.3124438478133622,0.448174364380254,1.59227936614423,0.8260916642567331,0.6950270567195257,0.5991073662625015,1.460326971749692,0.3285223721442134,0.604626167771246,0.3326102005844618,1.224293799902714,0.4394594397731326,0.22529703219673,0.1234271490686214,0.1997104030270483,-0.3045073174724675,829.6336996336996,798.6080586080586,828.021978021978,849.3772893772895,593.1135531135532,-0.102783,0.203796,0.983643,0.613098,-1.555176,0.680389,696263.736264,116873186.813187,88880805.860806,82.674171,1,1,1,1,1,75.000000
2025-05-02 14:46:41.682,-0.07742920368488296,-0.03628858952352613,1.093089238050621,0.5994884845384726,0.09405193220051347,0.1398910918633456,1.59227936614423,0.4823110483815756,0.4483520033162133,0.2756799303266383,1.460326971749692,0.4372322270481109,0.4495074582418724,0.4174459647319679,1.224293799902714,0.1746114905671878,0.275407036487283,0.3650639364804016,0.1997104030270483,0.1060288942239822,840.5128205128206,806.6666666666667,829.6336996336996,835.6776556776557,762.3443223443223,-0.094727,0.196411,0.980530,0.336456,-1.390686,-0.770111,697069.597070,116562930.402930,88829230.769231,81.601753,1,1,1,1,1,75.000000
2025-05-02 14:46:42.680,0.2079746780906063,0.261270918102305,1.093089238050621,0.6195697072118456,0.2621533282568599,0.2760150521750917,1.59227936614423,0.5269446589622614,0.4533293533308218,0.460566650106792,1.460326971749692,0.298738366389745,0.2799879088603355,0.515950151909795,1.224293799902714,0.1526618756701952,0.1666770789845637,0.3981153748105971,0.1997104030270483,0.008268237584959323,829.6336996336996,807.8754578754579,745.8241758241759,821.1721611721612,671.6849816849817,-0.103882,0.191162,0.982239,0.149536,0.097198,-0.575714,695457.875458,116479926.739927,88926739.926740,81.143738,1,1,1,1,1,75.000000
2025-05-02 14:46:43.682,0.5145808911424392,0.3909288692722152,1.093089238050621,0.482800258050589,0.1702001506057307,0.2928758360590533,1.59227936614423,0.4588793425538565,0.3550633003562243,0.4707152029985158,1.460326971749692,0.5518344040191852,0.3439822211639996,0.5226818891430345,1.224293799902714,0.2950341473870889,0.03889224714565744,0.3596887645090213,0.1997104030270483,-0.1066759183292124,803.8461538461539,812.3076923076924,844.9450549450549,825.2014652014652,561.6849816849817,-0.109619,0.199280,0.983704,0.971985,-0.942078,-0.007477,698681.318681,116548424.908425,89094358.974359,80.117439,1,1,1,1,1,75.000000
2025-05-02 14:46:44.060,,,,,,,,,,,,,,,,,,,,,,,,,,,,,,,,,,,,,,,,,,/muse/elements/blink
2025-05-02 14:46:44.686,0.4993660196072475,0.5045175139193434,1.093089238050621,0.4538765081644496,-0.1341229980697397,0.4865729381311247,1.59227936614423,0.1096016149858111,0.2745443066971903,0.2598570336571765,1.460326971749692,0.4619806167077769,0.4058014681615261,0.4452950681206695,1.224293799902714,0.331152553805785,-0.09908850817124595,0.3271822051362066,0.1997104030270483,-0.3978945645588958,834.4688644688645,823.1868131868132,801.4285714285714,821.5750915750916,607.2161172161173,-0.104858,0.196228,0.982239,0.239258,-0.957031,-0.672913,696263.736264,116201904.761905,89038754.578755,78.270828,1,1,1,4,1,75.000000
2025-05-02 14:46:45.680,0.5976373199284315,0.6583894202150123,1.093089238050621,0.643348023132955,0.3882872323679773,0.4983656554745505,1.59227936614423,0.5692345724147896,0.7640271814478068,0.217000846939497,1.460326971749692,0.8553951643011873,0.5940854855974298,0.7235399320329625,1.224293799902714,0.5467909319435831,0.09079893397293808,0.4512418836303878,0.1997104030270483,0.03528975419432221,826.8131868131868,817.1428571428571,794.5787545787546,832.4542124542124,930.7692307692308,-0.095581,0.194519,0.979858,0.396271,-1.099091,0.014954,696263.736264,116168058.608059,89035531.135531,78.247955,1,1,1,1,1,75.000000
2025-05-02 14:46:46.680,0.4226752169822544,0.3957747886408453,1.093089238050621,0.7166911617192028,0.3342040562875235,0.3281686671489937,1.59227936614423,0.4329186584275959,0.8015118469775687,0.3722234125425935,1.460326971749692,0.8884990226820917,0.4681575969220232,0.6399469503373677,1.224293799902714,0.4509987534170821,0.1684733989595123,0.427982756002516,0.1997104030270483,0.0259329028451125,799.8168498168499,796.1904761904763,830.4395604395604,820.3663003663004,620.9157509157509,-0.111145,0.194336,0.979248,-0.179443,-0.358887,-0.000000,699487.179487,116267179.487179,89045201.465201,79.364113,1,1,1,1,1,75.000000
2025-05-02 14:46:47.679,0.4490489744110929,0.6777185889429042,1.093089238050621,0.7761312971454445,0.2733617863293031,0.5014723300578363,1.59227936614423,0.3875326864511526,0.4354097286926585,0.5564419083209026,1.460326971749692,0.7625551857453204,0.4110316767543823,0.6869797448470362,1.224293799902714,0.4256686582341559,0.2999360530619251,0.415840068409437,0.1997104030270483,0.09142689635713207,829.6336996336996,800.6227106227107,817.5457875457876,828.8278388278388,582.6373626373627,-0.145020,0.212646,0.973572,0.201874,-2.534637,0.665436,702710.622711,116176923.076923,88826813.186813,79.508842,1,1,1,1,1,75.000000
2025-05-02 14:46:48.687,0.706781185618223,0.6044170568923216,1.093089238050621,0.6523558311479407,0.425364132923695,0.5128214562281526,1.59227936614423,0.4643384323229227,0.6944790322284821,0.6060226806345893,1.460326971749692,0.816832215876982,0.5226215213275314,0.6110869997176799,1.224293799902714,0.4889465001730757,0.1743784652742144,0.3606021331673662,0.1997104030270483,0.105508178503092,823.992673992674,797.8021978021978,747.032967032967,823.992673992674,961.7948717948718,-0.135742,0.210144,0.971558,0.358887,-1.607513,-0.231781,702710.622711,116295384.615385,88880000.000000,79.596512,1,1,1,4,1,75.000000
2025-05-02 14:46:49.680,1.354730741660282,0.7287423955987307,1.093089238050621,0.9931162520785032,0.7622208527808413,0.7332344753191683,1.59227936614423,0.7435564157123921,0.8868706425906099,0.727217950644768,1.460326971749692,0.8712228616469485,0.6292000304800757,0.4907470744947414,1.224293799902714,0.5568369590209813,0.2858401812891623,0.2995647149470679,0.1997104030270483,0.2457816675212559,835.6776556776557,803.4432234432235,844.1391941391942,868.3150183150184,597.1428571428571,-0.132385,0.213623,0.973877,0.717773,-2.482300,0.381317,703516.483516,116620952.380952,88968644.688645,80.652679,1,1,1,4,1,75.000000
2025-05-02 14:46:49.681,,,,,,,,,,,,,,,,,,,,,,,,,,,,,,,,,,,,,,,,,,/muse/elements/blink
2025-05-02 14:46:50.680,1.654474454331078,0.6620541481007959,1.093089238050621,1.17894395794784,0.9841005017240761,0.6893581725423649,1.59227936614423,0.9160776228389169,0.8802104763502646,0.3184437781209577,1.460326971749692,0.856230420388016,0.5079632941514222,0.3679067002815039,1.224293799902714,0.466510635982371,0.3886663669501797,0.3947225722999197,0.1997104030270483,0.2971205468529533,835.2747252747253,818.3516483516484,787.3260073260074,811.5018315018315,629.3772893772893,-0.141846,0.211182,0.976074,0.912170,-1.667328,0.456085,705128.205128,116718461.538462,88874358.974359,82.629341,1,1,1,1,1,75.000000
2025-05-02 14:46:51.680,0.4227810573294453,0.08260895600451607,1.093089238050621,0.3956346528186715,0.3581997711346404,-0.1039941168550219,1.59227936614423,0.2889535443623837,0.6374226151144718,0.1253860912760256,1.460326971749692,0.6329816198264683,0.4098357130419101,0.7853229692527677,1.224293799902714,0.4023546871445658,0.2624797573084055,0.3045003818610288,0.1997104030270483,0.02763373403306463,818.7545787545788,818.7545787545788,828.021978021978,810.6959706959707,661.6117216117216,-0.135071,0.217041,0.972534,1.121521,-1.166382,0.523376,704322.344322,116685421.245421,88638241.758242,82.789070,1,1,1,1,1,75.000000
2025-05-02 14:46:52.680,0.2959175608412986,0.539030700255278,1.093089238050621,0.4456259100505644,0.272828683451562,0.1924764284661233,1.59227936614423,0.3912719247843844,0.8942228503343376,0.5517201647632141,1.460326971749692,0.684253004150843,0.4952564675642041,0.6498082171879882,1.224293799902714,0.2629360291562669,0.2094796439716939,0.4676468133560603,0.1997104030270483,-0.0001301742455545535,803.4432234432235,803.8461538461539,794.5787545787546,818.7545787545788,579.4139194139194,-0.136963,0.219055,0.972961,0.493469,-2.108459,0.844879,701904.761905,116363882.783883,88423076.923077,80.919800,1,1,1,1,1,75.000000
2025-05-02 14:46:53.680,0.8890783604462446,0.9427019890549135,1.093089238050621,0.9652272913254692,0.5892977187801419,0.3171821594968119,1.59227936614423,0.5425307152416426,1.022592689214601,0.6438879447307959,1.460326971749692,0.9400695013299953,0.5179068583681904,0.7168109723039262,1.224293799902714,0.5745579778277788,0.08901200555205668,0.4087498029098965,0.1997104030270483,0.03516504760667914,810.2930402930403,798.2051282051282,784.9084249084249,806.6666666666667,1041.172161172161,-0.139404,0.210571,0.979675,0.530853,-2.115936,-0.029907,701904.761905,116190622.710623,88348131.868132,79.698059,1,1,1,1,1,75.000000
2025-05-02 14:46:54.680,0.5014568433429916,0.3232848615070269,1.093089238050621,0.6603229015593053,0.1602118687058627,0.109303965697184,1.59227936614423,0.3622950558134537,0.8259018407494623,0.5085730538747918,1.460326971749692,0.5006308152399739,0.4076043622255832,0.6662320459839786,1.224293799902714,0.4268671565883407,0.01585359853610065,0.2775497991515491,0.1997104030270483,-0.0437954069437453,811.5018315018315,819.96336996337,798.6080586080586,838.4981684981685,648.7179487179487,-0.135986,0.212830,0.974915,0.456085,-1.099091,0.186920,701098.901099,116286520.146520,88446446.886447,81.968651,1,1,1,1,1,75.000000
2025-05-02 14:46:55.681,0.3746517716474529,0.4572553191070897,1.093089238050621,0.5732791018721263,0.0973505245592579,0.3181296700083969,1.59227936614423,0.3583121311458153,0.7725676762886796,0.6368381024269314,1.460326971749692,0.6729727433466136,0.3906223520901952,0.5585698556682679,1.224293799902714,0.4651921795332539,-0.0413265905870483,0.2528029644752368,0.1997104030270483,0.003386594332480784,806.2637362637363,800.6227106227107,813.1135531135532,807.0695970695971,721.6483516483516,-0.132385,0.206421,0.978210,0.299072,-1.502838,-0.037384,706739.926740,116320366.300366,88460146.520147,83.001427,1,1,1,1,1,75.000000
2025-05-02 14:46:56.680,0.6547161622833689,0.8804305695231324,1.093089238050621,1.207366478152958,0.2993873381085683,0.3951587943127167,1.59227936614423,0.5987339925248457,0.7735604388875158,0.6218096379850548,1.460326971749692,0.8204856231485895,0.4295128198781057,0.5642941107810242,1.224293799902714,0.5784680530284256,0.2094369059527196,0.3248793469609579,0.1997104030270483,0.06190702505846878,821.5750915750916,812.3076923076924,749.8534798534798,824.3956043956044,651.941391941392,-0.144043,0.213257,0.973755,0.702820,-1.600037,0.209351,708351.648352,116529084.249084,88515750.915751,82.480072,1,1,1,4,1,75.000000
2025-05-02 14:46:57.679,0.3475385639915648,0.5513547840846831,1.093089238050621,0.9740909770224219,0.4487180322154536,0.2531082273432795,1.59227936614423,0.4222755477352406,0.6546948309166988,0.4022800012929817,1.460326971749692,0.7356022997449287,0.4486892188577244,0.5454932762325961,1.224293799902714,0.2882466770479065,0.2016135960280132,0.4096145499017952,0.1997104030270483,-0.0493383941841682,814.7252747252747,787.3260073260074,743.4065934065934,813.919413919414,629.7802197802198,-0.134399,0.207825,0.977966,0.530853,-1.428070,-0.201874,713186.813187,116722490.842491,88528644.688645,81.379517,1,1,1,1,1,75.000000
2025-05-02 14:46:58.680,0.3518829015946352,0.3548260277353653,1.093089238050621,0.5744307031212736,0.2713784897681845,0.3364772341380683,1.59227936614423,0.2542464867816024,0.6648039295770667,0.3722868308386559,1.460326971749692,0.7164396302259884,0.4643724946234782,0.4623609963559793,1.224293799902714,0.3880574513677332,0.2027539206827808,0.3987442697515817,0.1997104030270483,-0.0726183026289985,831.2454212454213,832.0512820512821,805.4578754578755,831.2454212454213,648.7179487179487,-0.131775,0.201843,0.978882,0.837402,-1.614990,-0.358887,715604.395604,116827252.747253,88484322.344322,80.581116,1,1,1,1,1,75.000000
2025-05-02 14:46:59.680,1.214474954326012,0.7448742881495707,1.093089238050621,1.030586196985597,0.6746598920663005,0.3764564480646049,1.59227936614423,0.9378045736607966,0.8518281294574114,0.5064549422333421,1.460326971749692,0.8501437391261506,0.3977980021112644,0.3691605812952997,1.224293799902714,0.3672975494256814,0.1011896271582667,0.2557295140284279,0.1997104030270483,0.1237766754514989,824.7985347985348,801.4285714285714,738.974358974359,809.0842490842491,981.941391941392,-0.131836,0.213379,0.967773,0.530853,-0.336456,-0.097198,710769.230769,116583882.783883,88240146.520147,79.128296,1,1,1,1,1,70.000000
2025-05-02 14:47:00.690,1.319040178797165,1.006829241956922,1.093089238050621,0.8535292805251393,1.138409350158401,0.7360665571982236,1.59227936614423,0.8303907267369804,0.9647820798671057,0.5498178113558504,1.460326971749692,0.8028000176824414,0.4231823443797897,0.3319935965988338,1.224293799902714,0.4801124804972237,0.3469155084907491,0.1557884304071963,0.1997104030270483,0.198213129546473,817.5457875457876,796.996336996337,780.8791208791209,814.7252747252747,765.5677655677656,-0.128296,0.209534,0.974243,0.411224,-1.502838,-0.500946,709963.369963,116197875.457875,88132161.172161,77.065620,1,1,1,1,1,70.000000
2025-05-02 14:47:01.680,1.035921439849816,1.151701392569375,1.093089238050621,0.5534685923088923,1.097057309893855,0.868510087373794,1.59227936614423,0.62784421521845,0.8792235890074253,0.6410133529991916,1.460326971749692,0.8743977055077105,0.5865844018437841,0.4588491840032422,1.224293799902714,0.5979523049540977,0.2217496964531371,0.1926972073307402,0.1997104030270483,0.1240466194231715,842.9304029304029,842.9304029304029,856.6300366300367,859.047619047619,556.8498168498169,-0.132080,0.215332,0.976379,0.373840,-1.143951,0.216827,709963.369963,116202710.622711,88212747.252747,76.045715,1,1,1,1,1,70.000000
2025-05-02 14:47:01.977,,,,,,,,,,,,,,,,,,,,,,,,,,,,,,,,,,,,,,,,,,/muse/elements/blink
2025-05-02 14:47:02.687,0.7289302559700137,1.135044990598133,1.093089238050621,0.5217750681921139,0.8586137152736014,0.6177997032465207,1.59227936614423,0.1975139086923973,0.6683519381780246,0.5843386465047248,1.460326971749692,0.7212057092715954,0.5569915370088884,0.459355677555956,1.224293799902714,0.6077709236998761,-0.1176664461983574,-0.09494839984824535,0.1997104030270483,-0.07214616681799139,821.978021978022,808.2783882783883,793.3699633699634,807.4725274725275,674.9084249084249,-0.128174,0.214844,0.978638,0.171967,-0.979462,0.770111,710769.230769,116124542.124542,88229670.329670,76.897758,1,1,1,1,1,70.000000
2025-05-02 14:47:03.571,,,,,,,,,,,,,,,,,,,,,,,,,,,,,,,,,,,,,,,,,,/muse/elements/blink
2025-05-02 14:47:03.679,0.6861556390708519,0.6063189637955884,1.093089238050621,0.5324885963289684,0.796648381006263,0.6439336864072114,1.59227936614423,0.1917937976596553,0.6449489954573671,0.509336681115042,1.460326971749692,0.7212057092715954,0.4873404016881073,0.6932720854277313,1.224293799902714,0.5801040875626904,-0.1348881983222702,0.5010067330881648,0.1997104030270483,-0.1503695128210902,871.941391941392,808.2783882783883,788.5347985347986,877.1794871794872,608.4249084249085,-0.138062,0.210815,0.972412,0.844879,-2.026215,0.800018,712380.952381,116239780.219780,88265128.205128,77.328560,1,1,1,1,1,70.000000
2025-05-02 14:47:03.806,,,,,,,,,,,,,,,,,,,,,,,,,,,,,,,,,,,,,,,,,,/muse/elements/blink
2025-05-02 14:47:04.685,0.6861556390708519,0.8495708558837727,1.093089238050621,0.5324885963289684,0.796648381006263,0.7147180834337962,1.59227936614423,0.1917937976596553,0.6449489954573671,0.5562748677960273,1.460326971749692,0.7212057092715954,0.4873404016881073,0.6485235415867429,1.224293799902714,0.5801040875626904,-0.1348881983222702,0.5490753562641074,0.1997104030270483,-0.1503695128210902,811.5018315018315,811.5018315018315,832.8571428571429,818.7545787545788,624.9450549450549,-0.173401,0.206482,0.970215,-0.381317,0.426178,0.381317,705128.205128,116412234.432234,88178901.098901,76.890884,1,2,1,1,2,70.000000
2025-05-02 14:47:05.686,0.1660567095571566,0.6873085259551013,1.093089238050621,0.5017388647266692,0.08674374559247236,0.5667176392723361,1.59227936614423,0.4771707103653118,0.5840211193650299,0.5923191658147057,1.460326971749692,0.6982061143042382,0.6155446352038974,0.572821528385754,1.224293799902714,0.2494260953811972,-0.06411958955876351,0.5462608560560798,0.1997104030270483,0.1177687688727885,834.4688644688645,792.967032967033,897.3260073260074,817.948717948718,790.952380952381,-0.161682,0.195984,0.974854,0.418701,-1.271057,0.059814,709157.509158,116486373.626374,88154725.274725,78.991768,1,1,1,4,1,70.000000
2025-05-02 14:47:06.231,,,,,,,,,,,,,,,,,,,,,,,,,,,,,,,,,,,,,,,,,,/muse/elements/blink
2025-05-02 14:47:06.679,0.08416055750251265,0.7000146046302839,1.093089238050621,0.5372150419710363,0.09782542204573744,0.6353807101568769,1.59227936614423,0.6634167879747982,0.4935247318581504,0.8503969113634411,1.460326971749692,0.7197890794048373,0.5781738315801512,0.6469916222291281,1.224293799902714,0.233476816504625,-0.06239436483894669,0.5330214685949846,0.1997104030270483,0.2151083055620077,804.6520146520147,814.3223443223443,726.8864468864469,807.8754578754579,610.0366300366301,-0.156677,0.200500,0.973572,0.291595,-2.811279,-0.157013,711575.091575,116495238.095238,88024175.824176,82.447723,1,1,1,4,1,70.000000
2025-05-02 14:47:07.681,0.2268059136170098,0.7408027871558013,1.093089238050621,0.6083221058616487,0.1550909526802205,0.6422454955386963,1.59227936614423,0.142843346292317,0.461371928513671,0.8418905456897601,1.460326971749692,0.5131476723521824,0.3673231724935715,0.6470827690382317,1.224293799902714,0.4698579765908233,0.09842048627003497,0.4895618018582416,0.1997104030270483,-0.1650284046346047,862.6739926739926,848.5714285714286,871.5384615384615,850.5860805860806,696.6666666666667,-0.159668,0.199402,0.968811,0.209351,-1.854248,-0.186920,711575.091575,116305860.805861,87968571.428571,84.075180,1,1,1,2,1,70.000000
2025-05-02 14:47:08.680,0.2268059136170098,0.7576756362386242,1.093089238050621,0.8639235615409444,0.1550909526802205,0.4410329035161933,1.59227936614423,0.2287432013112677,0.461371928513671,0.6021395435367003,1.460326971749692,0.6785288859066982,0.3673231724935715,0.4948839818396076,1.224293799902714,0.4569031438677211,0.09842048627003497,0.3267231104622512,0.1997104030270483,-0.04977094370204332,850.1831501831502,792.1611721611722,835.2747252747253,841.3186813186813,698.2783882783883,-0.160095,0.200134,0.970398,0.485992,-1.203766,-0.089722,709157.509158,116074578.754579,87870256.410256,83.138542,1,1,1,1,1,70.000000
2025-05-02 14:47:08.767,,,,,,,,,,,,,,,,,,,,,,,,,,,,,,,,,,,,,,,,,,/muse/elements/blink
2025-05-02 14:47:09.680,0.197588680544659,1.03346194399444,1.093089238050621,1.055955860309565,0.120504462725002,0.8683799692162151,1.59227936614423,0.316639593953695,0.4077531454458624,0.791425172480814,1.460326971749692,0.624592605193011,0.3148901832925043,0.5879501945917001,1.224293799902714,0.4401465124203007,0.05386130073582548,0.3702194026572318,0.1997104030270483,0.06127860901623321,819.1575091575091,796.5934065934066,801.8315018315019,821.978021978022,574.1758241758242,-0.154724,0.197021,0.975525,0.127106,-1.375732,0.201874,707545.787546,116139853.479853,87967765.567766,84.421257,1,1,1,1,1,70.000000
2025-05-02 14:47:10.502,,,,,,,,,,,,,,,,,,,,,,,,,,,,,,,,,,,,,,,,,,/muse/elements/blink
2025-05-02 14:47:10.680,0.2103904114007419,0.5671753372091861,1.093089238050621,1.055955860309565,0.4616749451190409,0.4830215197026924,1.59227936614423,0.316639593953695,0.2468802360985795,0.8344274302037744,1.460326971749692,0.624592605193011,0.6595461158107372,0.4921039892402712,1.224293799902714,0.4401465124203007,0.1424669154769163,0.4745541631746735,0.1997104030270483,0.06127860901623321,826.4102564102565,816.7399267399268,882.014652014652,840.9157509157509,958.1684981684982,-0.157715,0.200562,0.977539,0.530853,-0.859833,0.762634,704322.344322,116164029.304029,88012893.772894,85.427513,1,1,1,1,1,70.000000
2025-05-02 14:47:11.679,0.2103904114007419,0.6496959912604163,1.093089238050621,1.055955860309565,0.4616749451190409,0.4479126536889877,1.59227936614423,0.316639593953695,0.2468802360985795,0.8173360039784122,1.460326971749692,0.624592605193011,0.6595461158107372,0.4435007077657763,1.224293799902714,0.4401465124203007,0.1424669154769163,0.3852439767228841,0.1997104030270483,0.06127860901623321,829.2307692307693,815.5311355311355,679.3406593406594,827.6190476190476,688.2051282051282,-0.150879,0.204285,0.969421,0.426178,-1.667328,0.119629,706739.926740,116186593.406593,88072527.472527,82.703087,1,1,1,1,1,70.000000
2025-05-02 14:47:12.680,0.4420084793479575,0.5032176648288237,1.093089238050621,0.5171704149693618,0.03747768562829125,0.2823163162925841,1.59227936614423,0.3055226069814417,0.4840067951414332,0.5433936931833838,1.460326971749692,0.6396059807381914,0.4317728552644986,0.4675691749236617,1.224293799902714,0.4055789375128764,0.08851899191214029,0.4668913709873376,0.1997104030270483,-0.0528162293463448,821.5750915750916,814.7252747252747,802.2344322344322,813.5164835164835,543.1501831501831,-0.148193,0.196716,0.974243,0.269165,-1.472931,0.231781,707545.787546,116205934.065934,88120073.260073,80.947052,1,1,1,1,1,70.000000
2025-05-02 14:47:13.680,0.289053436071325,0.5565017476472941,1.093089238050621,0.3292395078646153,0.06653220769025332,0.3194514385408171,1.59227936614423,0.2196396095293808,0.6333516868529486,0.3740220886622652,1.460326971749692,0.5762864318770596,0.4012907373121092,0.3585883110728266,1.224293799902714,0.3561689698337595,0.04430828765922677,0.1676477406067787,0.1997104030270483,-0.163180006985741,817.5457875457876,813.1135531135532,850.1831501831502,826.8131868131868,659.5970695970697,-0.162659,0.201172,0.974487,0.822449,-1.271057,0.493469,705934.065934,116104395.604396,88030622.710623,82.414932,1,1,1,1,1,70.000000
2025-05-02 14:47:14.246,,,,,,,,,,,,,,,,,,,,,,,,,,,,,,,,,,,,,,,,,,/muse/elements/blink
2025-05-02 14:47:14.683,0.01487583418739014,0.7856748534961201,1.093089238050621,0.03861719978153211,-0.2603971433115271,0.1860939152687424,1.59227936614423,0.06177983040031878,0.31447063123272,0.4442586197887542,1.460326971749692,0.465840315596773,0.4083917798936988,0.3707251566033818,1.224293799902714,0.2799319495517569,-0.04798207924551812,0.07186981341610858,0.1997104030270483,-0.1349213897997227,847.7655677655678,816.3369963369963,833.6630036630037,829.2307692307693,807.8754578754579,-0.153870,0.202698,0.970032,0.471039,-1.622467,-0.082245,705128.205128,116191428.571429,88031428.571429,84.869034,1,1,1,1,1,70.000000
2025-05-02 14:47:15.679,0.4117959621709889,0.9869788882548186,1.093089238050621,0.6032106388523533,0.2793322311917865,0.264778227966144,1.59227936614423,0.2334898281222106,0.03091570830025922,0.5921459115884079,1.460326971749692,0.4889856962180262,0.4805624272213899,0.4797755946336157,1.224293799902714,0.4364817066582614,0.2632305907675303,0.2972190979260636,0.1997104030270483,-0.05036004082354566,818.7545787545788,812.3076923076924,829.6336996336996,820.3663003663004,595.5311355311355,-0.157471,0.201355,0.978943,0.433655,-1.173859,-0.186920,701904.761905,116011721.611722,87881538.461538,85.196136,1,1,1,2,1,70.000000
2025-05-02 14:47:16.687,0.5466445549892763,0.7770391098803126,1.093089238050621,0.5383879362613641,0.4621654019131459,0.2678733278509611,1.59227936614423,0.3066062666823679,0.4251907098075998,0.5854875647075529,1.460326971749692,0.6689625160973955,0.4040351007299967,0.4217141501395214,1.224293799902714,0.544233367257356,0.1344111315489328,0.09926095763052672,0.1997104030270483,0.02520386523248784,815.1282051282052,811.9047619047619,842.5274725274726,809.0842490842491,767.1794871794872,-0.154114,0.203735,0.969116,0.396271,-1.884155,0.067291,701904.761905,115869890.109890,87829963.369963,83.310921,1,1,1,2,1,70.000000
2025-05-02 14:47:17.492,,,,,,,,,,,,,,,,,,,,,,,,,,,,,,,,,,,,,,,,,,/muse/elements/blink
2025-05-02 14:47:17.680,0.3988231241206012,0.8063923453190114,1.093089238050621,0.4344575200783053,0.487152955570832,0.4219754224333283,1.59227936614423,0.5304681969561816,0.4051977291848332,0.5476793904923098,1.460326971749692,0.7805088030773524,0.3136240209659746,0.26217855579775,1.224293799902714,0.4812222962810613,-0.07547033281709468,0.005625612085510589,0.1997104030270483,-0.06032305975928039,863.4798534798535,832.0512820512821,736.1538461538462,859.8534798534798,791.3553113553114,-0.152039,0.199646,0.972778,0.269165,-1.697235,-0.104675,706739.926740,115944835.164835,87935531.135531,82.489067,1,1,1,2,1,70.000000
2025-05-02 14:47:18.680,-0.02985990398836613,1.093540609981744,1.093089238050621,0.1897823748366673,0.5427652361303952,0.8512412876230966,1.59227936614423,0.5793363939454012,0.06986815382754413,0.6068662684163612,1.460326971749692,0.7124148891183867,0.1525828079714115,0.3779381873340887,1.224293799902714,0.3371617341018515,-0.1319176297853986,0.1061309753264589,0.1997104030270483,-0.1643808270833976,937.2161172161173,626.5567765567765,917.8754578754579,953.3333333333334,587.0695970695971,-0.154785,0.195190,0.975769,0.755157,-2.011261,-0.164490,709157.509158,115964981.684982,87996776.556777,79.955177,1,1,1,1,1,70.000000
2025-05-02 14:47:19.679,-0.02985990398836613,1.226087982081232,1.093089238050621,0.1897823748366673,0.5427652361303952,1.048891255189741,1.59227936614423,0.5793363939454012,0.06986815382754413,0.5890080624525276,1.460326971749692,0.7124148891183867,0.1525828079714115,0.4419790385270557,1.224293799902714,0.3371617341018515,-0.1319176297853986,0.2111432670592231,0.1997104030270483,-0.1643808270833976,831.6483516483516,800.2197802197802,780.4761904761905,819.96336996337,811.5018315018315,-0.151978,0.196838,0.974670,0.867310,-0.904694,-0.097198,705128.205128,115514505.494505,87882344.322344,77.913521,1,1,1,1,1,70.000000
2025-05-02 14:47:20.245,,,,,,,,,,,,,,,,,,,,,,,,,,,,,,,,,,,,,,,,,,/muse/elements/blink
2025-05-02 14:47:20.688,-0.02985990398836613,1.226087982081232,1.093089238050621,0.1897823748366673,0.5427652361303952,1.048891255189741,1.59227936614423,0.5793363939454012,0.06986815382754413,0.5890080624525276,1.460326971749692,0.7124148891183867,0.1525828079714115,0.4419790385270557,1.224293799902714,0.3371617341018515,-0.1319176297853986,0.2111432670592231,0.1997104030270483,-0.1643808270833976,836.8864468864469,802.2344322344322,740.989010989011,821.978021978022,684.5787545787546,-0.156006,0.199097,0.972595,0.456085,-1.263580,0.104675,703516.483516,115463736.263736,87987106.227106,77.621460,1,2,1,1,2,70.000000
2025-05-02 14:47:21.680,0.4550369153320845,1.226087982081232,1.093089238050621,0.1897823748366673,0.5763987055891021,1.048891255189741,1.59227936614423,0.5793363939454012,0.6264271213655102,0.5890080624525276,1.460326971749692,0.7124148891183867,0.4085268080868368,0.4419790385270557,1.224293799902714,0.3371617341018515,0.3286201180574857,0.2111432670592231,0.1997104030270483,-0.1643808270833976,674.1025641025641,915.4578754578755,745.0183150183151,680.5494505494506,606.8131868131868,-0.159180,0.203247,0.972534,0.067291,-0.463562,-0.471039,706739.926740,115475018.315018,88113626.373626,78.559036,1,1,1,1,1,70.000000
2025-05-02 14:47:21.852,,,,,,,,,,,,,,,,,,,,,,,,,,,,,,,,,,,,,,,,,,/muse/elements/blink
2025-05-02 14:47:22.680,0.4550369153320845,1.226087982081232,1.093089238050621,0.1897823748366673,0.5763987055891021,1.048891255189741,1.59227936614423,0.5793363939454012,0.6264271213655102,0.5890080624525276,1.460326971749692,0.7124148891183867,0.4085268080868368,0.4419790385270557,1.224293799902714,0.3371617341018515,0.3286201180574857,0.2111432670592231,0.1997104030270483,-0.1643808270833976,810.6959706959707,851.3919413919414,877.5824175824176,834.0659340659341,638.2417582417582,-0.152649,0.200317,0.974731,0.164490,-1.405640,-0.358887,703516.483516,115215531.135531,88106373.626374,78.466095,1,1,1,1,1,70.000000
2025-05-02 14:47:23.680,0.6971214939194631,0.7308041423757524,1.093089238050621,0.6327699329029127,0.3649843048835835,-0.09973773437455312,1.59227936614423,0.224096427146274,0.7016040266558704,0.5227691577288756,1.460326971749692,0.6519850694577112,0.3559995298471986,0.5178804189248467,1.224293799902714,0.4668327069628749,0.189442080698827,0.43010778337106,0.1997104030270483,-0.004017992517380269,835.6776556776557,821.5750915750916,751.0622710622711,812.3076923076924,758.7179487179487,-0.143738,0.201233,0.979919,0.500946,-0.000000,-0.605621,705128.205128,115159120.879121,88152307.692308,78.666641,1,1,1,1,1,70.000000
2025-05-02 14:47:24.680,0.8267488210760474,0.7529301238395254,1.093089238050621,0.7352777542791735,0.4598639515170199,-0.02808435259702691,1.59227936614423,0.5242655426552426,0.8493623551521921,0.5757884895213129,1.460326971749692,0.8825514369826193,0.351095721473366,0.5375725652687239,1.224293799902714,0.3498813552248182,0.1763041503704946,0.3670296742777417,0.1997104030270483,0.01236551425192785,821.978021978022,812.7106227106227,799.0109890109891,821.5750915750916,616.4835164835165,-0.144592,0.194885,0.978699,0.755157,-1.218719,0.912170,705934.065934,115196996.336996,88199047.619048,79.795242,1,1,1,1,1,70.000000
2025-05-02 14:47:25.680,1.157495614506231,0.844104793106929,1.093089238050621,0.9487356434258888,0.7862254525347844,0.478784426241313,1.59227936614423,0.7037147242731137,0.790775332547483,0.5727728947919718,1.460326971749692,0.8889663524286896,0.5754434695086869,0.4673259620857804,1.224293799902714,0.4427100601195336,0.1739170749623742,0.2605345098806434,0.1997104030270483,0.1221382494660627,815.934065934066,817.1428571428571,783.2967032967033,824.7985347985348,699.4871794871796,-0.147949,0.202209,0.971802,0.403748,-2.265472,0.306549,709157.509158,115173626.373626,88179706.959707,82.211807,1,1,1,1,1,70.000000
2025-05-02 14:47:26.689,0.767913952773513,0.8864087238282893,1.093089238050621,0.8223252334464712,0.4434833648894294,0.5545444281249293,1.59227936614423,0.4575567233827765,0.7635868193989162,0.690291280415076,1.460326971749692,0.6807074045446949,0.4186647437696908,0.4641940647532386,1.224293799902714,0.5388814500114244,0.0900203716946005,0.144760204949104,0.1997104030270483,0.1869409950551629,842.1245421245421,795.7875457875458,819.1575091575091,830.4395604395604,839.3040293040293,-0.147827,0.202820,0.979004,0.583191,-1.786957,-0.067291,713186.813187,115503223.443223,88287692.307692,82.870461,1,1,1,1,1,70.000000
2025-05-02 14:47:27.679,0.4517221087444555,0.5413627624633662,1.093089238050621,0.4019646874630262,0.2108134751600755,0.452612325291643,1.59227936614423,0.2451187878872906,0.815272829559227,0.6305411175699812,1.460326971749692,0.7617249004280734,0.5269736611784993,0.5080462415386783,1.224293799902714,0.4354999791069405,0.1762406823854527,0.04243916822333684,0.1997104030270483,0.1706246483582457,817.948717948718,819.1575091575091,767.1794871794872,821.5750915750916,570.5494505494505,-0.141663,0.201477,0.981384,0.366364,-0.807495,-0.620575,716410.256410,115613626.373626,88292527.472527,82.328590,1,1,1,1,1,70.000000
2025-05-02 14:47:28.691,0.543927468449122,0.5445891396939094,1.093089238050621,0.4871273035345525,0.2851962425185053,0.366204573996844,1.59227936614423,0.3007999554347237,0.6988818099044034,0.6241056028122867,1.460326971749692,0.717025360102806,0.4426442505902728,0.3712399076687761,1.224293799902714,0.2268653954819973,0.02291036652187192,-0.06866391014222827,0.1997104030270483,0.08325351260939444,823.992673992674,804.6520146520147,799.4139194139194,811.5018315018315,853.4065934065934,-0.141418,0.203613,0.977417,-0.186920,-1.929016,0.530853,718827.838828,115803003.663004,88283663.003663,83.098869,1,1,1,1,1,70.000000
2025-05-02 14:47:29.680,0.5845886883192929,0.3698820369173095,1.093089238050621,0.7432599029280137,0.2355024056642243,0.1624577438308084,1.59227936614423,0.3131562590425728,0.5933440743905155,0.5114351239632411,1.460326971749692,0.586033742092557,0.411968828398274,0.3069504908725596,1.224293799902714,0.2021485784009279,0.07912491343483927,-0.002414822110375877,0.1997104030270483,-0.1613233972174888,816.7399267399268,770,813.5164835164835,794.981684981685,705.934065934066,-0.145447,0.198730,0.979553,0.515900,-1.383209,-0.493469,719633.699634,115929523.809524,88261904.761905,82.362923,1,1,1,1,1,70.000000
2025-05-02 14:47:30.374,,,,,,,,,,,,,,,,,,,,,,,,,,,,,,,,,,,,,,,,,,/muse/elements/blink
2025-05-02 14:47:30.679,0.5533124468342474,0.6777945622229889,1.093089238050621,0.7106490195352241,0.1463627265764605,0.01541427647447599,1.59227936614423,0.07876631462606785,0.4684201086212688,0.5075249783803265,1.460326971749692,0.3330260710120981,0.3799405137649725,0.1499305029247884,1.224293799902714,0.187670776107471,0.006226075171051755,0.1359835362045581,0.1997104030270483,-0.2200256962852266,776.8498168498169,771.2087912087912,725.6776556776557,789.3406593406594,612.4542124542124,-0.147339,0.196533,0.975647,0.142059,-1.143951,1.173859,713186.813187,115583809.523810,87920219.780220,82.993187,1,1,1,1,1,70.000000
2025-05-02 14:47:31.680,0.5691434032764493,0.8992384737840753,1.093089238050621,0.8115692154619993,0.4083241689838534,0.5462563411645277,1.59227936614423,0.04353490816739253,0.4301466454549056,0.535804138634258,1.460326971749692,0.2475530873923031,0.3670843074310834,0.4477383398106293,1.224293799902714,0.320979937202988,-0.1328050734916079,0.2526990360838608,0.1997104030270483,-0.2674795871360872,805.0549450549451,805.0549450549451,898.5347985347986,813.919413919414,781.6849816849817,-0.125854,0.200073,0.977661,0.112152,-1.472931,-1.218719,715604.395604,115432307.692308,87949230.769231,83.147820,1,1,1,1,1,70.000000
2025-05-02 14:47:32.124,,,,,,,,,,,,,,,,,,,,,,,,,,,,,,,,,,,,,,,,,,/muse/elements/blink
2025-05-02 14:47:32.688,0.5691434032764493,0.9830983427852248,1.093089238050621,0.9845102731182253,0.4083241689838534,0.5629847309200484,1.59227936614423,0.342948546991486,0.4301466454549056,0.6532566253847584,1.460326971749692,0.4646352111975424,0.3670843074310834,0.6272418047701753,1.224293799902714,0.3237734933592021,-0.1328050734916079,0.3211699958278367,0.1997104030270483,-0.007548087685571748,836.0805860805862,826.007326007326,757.1062271062272,830.4395604395604,699.4871794871796,-0.121948,0.203247,0.984070,0.717773,-0.942078,0.194397,713186.813187,115372673.992674,87966959.706960,83.370705,1,1,1,1,1,70.000000
2025-05-02 14:47:33.685,0.773454607337079,1.088189245188028,1.093089238050621,0.6867405913522792,0.396258020194681,0.6828516406184705,1.59227936614423,0.6210249889483301,0.5203210654327738,0.6532566253847584,1.460326971749692,0.5379296976543276,0.4319277065150628,0.7849197494835165,1.224293799902714,0.4924005810627156,0.06488730691635697,0.2305499151933682,0.1997104030270483,0.1821456556151441,842.9304029304029,796.996336996337,938.4249084249085,831.6483516483516,781.6849816849817,-0.115295,0.193176,0.980713,0.493469,-1.353302,-0.291595,718827.838828,115671648.351648,88166007.326007,84.418121,1,1,1,1,1,70.000000
2025-05-02 14:47:34.679,0.7814592224160157,1.088189245188028,1.093089238050621,0.6647471429562372,0.5450626512538275,0.6828516406184705,1.59227936614423,0.5415573808848587,0.7678442335726037,0.6532566253847584,1.460326971749692,0.715231483370078,0.4288216766533354,0.7849197494835165,1.224293799902714,0.4002367134482728,0.05106773768737487,0.2305499151933682,0.1997104030270483,0.06982492213325128,803.040293040293,798.6080586080586,879.5970695970697,809.0842490842491,650.3296703296703,-0.114990,0.197937,0.977844,0.448608,-1.532745,0.186920,721245.421245,115828791.208791,88220000.000000,85.358078,1,1,1,1,1,70.000000
2025-05-02 14:47:35.679,0.7814592224160157,1.088189245188028,1.093089238050621,0.6647471429562372,0.5450626512538275,0.6828516406184705,1.59227936614423,0.5415573808848587,0.7678442335726037,0.6532566253847584,1.460326971749692,0.715231483370078,0.4288216766533354,0.7849197494835165,1.224293799902714,0.4002367134482728,0.05106773768737487,0.2305499151933682,0.1997104030270483,0.06982492213325128,803.040293040293,798.6080586080586,879.5970695970697,809.0842490842491,650.3296703296703,-0.114990,0.197937,0.977844,0.448608,-1.532745,0.186920,721245.421245,115828791.208791,88220000.000000,85.358078,1,1,1,1,1,70.000000
2025-05-02 14:47:36.309,,,,,,,,,,,,,,,,,,,,,,,,,,,,,,,,,,,,,,,,,,/muse/event/disconnected Muse-1C98
2025-05-02 14:47:45.758,,,,,,,,,,,,,,,,,,,,,,,,,,,,,,,,,,,,,,,,,,/muse/event/connected Muse-1C98
2025-05-02 14:47:46.679,0.7814592224160157,1.088189245188028,1.093089238050621,0.6647471429562372,0.5450626512538275,0.6828516406184705,1.59227936614423,0.5415573808848587,0.7678442335726037,0.6532566253847584,1.460326971749692,0.715231483370078,0.4288216766533354,0.7849197494835165,1.224293799902714,0.4002367134482728,0.05106773768737487,0.2305499151933682,0.1997104030270483,0.06982492213325128,818.7545787545788,790.952380952381,807.0695970695971,818.7545787545788,665.6410256410256,-0.096191,0.196228,0.980042,1.046753,-1.667328,-0.216827,718021.978022,115408131.868132,87958901.098901,85.669807,1,1,1,1,1,70.000000
2025-05-02 14:47:47.679,0,0,0,0,0,0,0,0,0,0,0,0,0,0,0,0,0,0,0,0,823.992673992674,814.3223443223443,836.0805860805862,834.0659340659341,753.8827838827839,-0.114380,0.203125,0.981750,0.276642,-1.839294,-0.650482,718827.838828,115306593.406593,88050769.230769,85.695869,0,4,4,4,4,70.000000
2025-05-02 14:47:48.679,0,0,0,0,0,0,0,0,0,0,0,0,0,0,0,0,0,0,0,0,623.7362637362637,827.2161172161173,997.6556776556777,618.901098901099,859.047619047619,-0.109802,0.203430,0.977234,0.224304,-0.471039,-0.912170,721245.421245,115261465.201465,88107179.487179,85.695869,0,4,4,4,4,70.000000
2025-05-02 14:47:48.855,,,,,,,,,,,,,,,,,,,,,,,,,,,,,,,,,,,,,,,,,,/muse/elements/blink
2025-05-02 14:47:49.687,0,1.092517057743362,0,0,0,0.6679996915800347,0,0,0,0.7019667298368335,0,0,0,0.5675368859298587,0,0,0,0.6197367294341856,0,0,803.040293040293,782.893772893773,770.8058608058608,811.0989010989011,912.2344322344322,-0.102600,0.199341,0.986267,0.351410,-1.562653,0.097198,718827.838828,115477435.897436,88205494.505495,90.776733,1,2,1,2,2,70.000000
2025-05-02 14:47:50.686,0.6462980202341856,0.7942476731893247,0,0.5699249972616242,-0.2613039888499093,0.2439313527473204,0,0.1575604130905711,0.2377191160476588,0.6339737262967305,0,0.439086352409644,0.3927094544946636,0.7361191243399438,0,0.2982478250183551,0.02721071146320574,0.6516714634279612,0,-0.2771952309311931,797.3992673992674,757.1062271062272,897.7289377289378,799.8168498168499,574.5787545787546,-0.115723,0.198486,0.985840,1.166382,1.390686,-0.478516,727692.307692,115567692.307692,88282857.142857,90.666588,1,1,1,2,1,70.000000
2025-05-02 14:47:51.013,,,,,,,,,,,,,,,,,,,,,,,,,,,,,,,,,,,,,,,,,,/muse/elements/blink
2025-05-02 14:47:51.679,0.5967254316010472,0.4442048736605439,0,0.5029459419981462,-0.2733328284236299,0.1693581146881676,0,0.1243034849792652,0.2082493173788635,0.3210463640194424,0,0.3927819961958261,0.3872578912483594,0.6353326860525501,0,0.2858275869116534,0.01852384960535769,0.6500666740023213,0,-0.2872549340218158,838.4981684981685,809.4871794871796,808.2783882783883,827.6190476190476,899.3406593406594,-0.107361,0.198303,0.981079,0.418701,-1.525269,0.149536,726886.446886,115701465.201465,88377948.717949,90.721306,1,1,1,1,1,70.000000
2025-05-02 14:47:52.680,0.4909283502346453,0.6924890794573799,0,0.5257625155912479,0.1846083486889441,0.3986947826954725,0,0.380977454503154,0.6002387171732351,0.146289864953571,0,0.5611859916402218,0.3418408290790826,0.6708622337506337,0,0.2805788811899219,-0.05683045296199087,0.4311976426897328,0,-0.06265857719890089,798.6080586080586,788.5347985347986,584.2490842490843,808.2783882783883,848.974358974359,-0.114075,0.198547,0.979614,0.291595,-0.942078,-0.777588,729304.029304,115673260.073260,88303003.663004,90.557304,1,1,1,2,1,70.000000
2025-05-02 14:47:53.684,0.4215601876648651,0.5062605057282453,0,0.5674245360183611,0.2204984635337645,0.3137681023615437,0,0.4283170064358792,0.7705606175511779,0.4089056339045416,0,0.6805959600330581,0.3537335227423043,0.5819086876114398,0,0.2666211771922634,-0.08651033269059544,0.4037432077997296,0,-0.1519709539210023,803.8461538461539,793.7728937728938,668.8644688644689,809.4871794871796,574.981684981685,-0.100891,0.197144,0.978943,0.314026,-1.779480,-0.067291,727692.307692,115620879.120879,88265128.205128,89.255730,1,1,1,2,1,70.000000
2025-05-02 14:47:54.150,,,,,,,,,,,,,,,,,,,,,,,,,,,,,,,,,,,,,,,,,,/muse/elements/blink
2025-05-02 14:47:54.691,0.4438194591550665,0.4884967034869577,0,0.6652473284526514,0.181326287428583,0.2609546804375328,0,0.4064973768105313,0.5950839965438697,0.409040049539125,0,0.51201731214258,0.4350917638657407,0.4730003078668549,0,0.3013867850521473,-0.0130861005081265,0.3268057541344376,0,-0.2726517194800799,828.8278388278388,801.8315018315019,778.0586080586081,813.1135531135532,961.3919413919414,-0.104858,0.198669,0.981201,0.800018,-2.018738,0.710297,726080.586081,115511282.051282,88244981.684982,89.951736,1,1,1,2,1,70.000000
2025-05-02 14:47:55.679,0.2883682302435295,0.5888080225872038,0,0.6480372354983034,0.1589067544590947,0.1299311343713174,0,0.4039936549047158,0.4203195955737784,0.3211616045655454,0,0.2236371885808685,0.3623514800058215,0.525015369374694,0,0.2295339479275345,-0.1444832214059531,0.3132489505475278,0,-0.3313857890897149,815.934065934066,788.9377289377289,844.1391941391942,801.8315018315019,675.7142857142858,-0.109924,0.199890,0.983337,1.016846,-1.914062,1.196289,726080.586081,115219560.439560,88084615.384615,87.793137,1,1,1,1,1,70.000000
2025-05-02 14:47:56.679,0.158844197630211,0.340293962110758,0,0.4187455587812191,0.0561309780043464,0.1696843937242869,0,0.1937758094516342,0.4691658809051366,0.4020601982985011,0,0.7289647572884169,0.299161469379514,0.603999676527458,0,0.4124961051241455,-0.05711672147199826,0.4197588636461927,0,0.04234967383184465,860.6593406593407,793.3699633699634,900.952380952381,869.5238095238095,936.8131868131868,-0.109192,0.199890,0.982056,0.695343,-1.734619,0.097198,725274.725275,115279194.139194,88195824.175824,86.254585,1,1,1,2,1,70.000000
2025-05-02 14:47:56.693,,,,,,,,,,,,,,,,,,,,,,,,,,,,,,,,,,,,,,,,,,/muse/elements/blink
2025-05-02 14:47:57.691,-0.08341119590489272,0.5593731422160843,0,0.09996826839326624,0.0271382410816717,0.3476913626162376,0,-0.1014654133002747,0.1591617632264598,0.2803715754434696,0,0.3281903470204156,0.2474793525065565,0.6145526974169564,0,0.3845237541045213,0.0215041502059267,0.2331946722816415,0,-0.06322263432139207,813.5164835164835,787.3260073260074,831.6483516483516,822.3809523809524,616.8864468864469,-0.115234,0.193848,0.978088,0.418701,-1.562653,0.314026,726080.586081,115207472.527473,88299780.219780,85.735680,1,1,1,1,1,70.000000
2025-05-02 14:47:58.690,0.6771149426187857,0.4180277173290046,0,0.5336413464075872,0.4700072851637522,-0.01752730566943374,0,0.5979986667350077,0.564056035203645,0.3057854814793934,0,0.3495569845648441,0.3735142826352824,0.4500492641438827,0,0.1573871218790775,-0.1129413634285278,0.1017873719773335,0,-0.1048246691117343,814.3223443223443,800.6227106227107,501.6483516483516,815.5311355311355,814.3223443223443,-0.105652,0.198547,0.981628,0.762634,-1.136475,0.672913,729304.029304,115429084.249084,88413406.593407,87.345558,1,1,1,1,1,70.000000
2025-05-02 14:47:59.688,1.188849977393522,0.8257245587773697,0,0.7043469397668519,0.4828851720112604,0.4262834247977078,0,0.4351823476753915,0.7302937483938092,0.8966059586519947,0,0.776517830023545,0.5318702940213188,0.4209166741403714,0,0.325531564793349,0.07756957280686128,0.08277454536166083,0,0.02102909362070618,867.1062271062272,808.2783882783883,612.4542124542124,862.2710622710623,694.6520146520147,-0.111145,0.196594,0.974243,0.381317,-1.136475,-0.403748,728498.168498,115466153.846154,88421465.201465,87.702881,1,1,1,2,1,70.000000
2025-05-02 14:47:59.742,,,,,,,,,,,,,,,,,,,,,,,,,,,,,,,,,,,,,,,,,,/muse/elements/blink
2025-05-02 14:48:00.679,1.218444744759765,0.8341159629297893,0,0.8848297754765746,0.3621304690732761,0.5377905140106399,0,0.333753157124683,0.5494761020091762,0.880540336294255,0,0.7575579303451133,0.5958364328481338,0.3687814692960845,0,0.4628428121796563,0.06327861949869117,0.04478204278495561,0,-0.06829339231129296,794.5787545787546,797.3992673992674,898.9377289377289,814.3223443223443,595.934065934066,-0.105164,0.196167,0.982666,0.351410,-1.839294,-0.284119,728498.168498,115524175.824176,88418241.758242,85.639954,1,1,1,2,1,70.000000
2025-05-02 14:48:00.943,,,,,,,,,,,,,,,,,,,,,,,,,,,,,,,,,,,,,,,,,,/muse/elements/blink
2025-05-02 14:48:01.679,1.218444744759765,1.096726392600065,0,0.8848297754765746,0.3621304690732761,0.812425888366364,0,0.333753157124683,0.5494761020091762,0.8276432908227834,0,0.7575579303451133,0.5958364328481338,0.5627100394672471,0,0.4628428121796563,0.06327861949869117,0.3122255411944186,0,-0.06829339231129296,813.5164835164835,796.1904761904763,711.1721611721612,825.6043956043957,915.4578754578755,-0.109314,0.199829,0.983704,0.074768,-1.622467,-0.149536,728498.168498,115504029.304029,88299780.219780,85.008568,1,1,1,2,1,70.000000
2025-05-02 14:48:02.074,,,,,,,,,,,,,,,,,,,,,,,,,,,,,,,,,,,,,,,,,,/muse/elements/blink
2025-05-02 14:48:02.686,1.218444744759765,1.035365133659544,0,0.8848297754765746,0.3621304690732761,0.7365842948270813,0,0.333753157124683,0.5494761020091762,0.6233096629395413,0,0.7575579303451133,0.5958364328481338,0.5963973415275066,0,0.4628428121796563,0.06327861949869117,0.363056156004342,0,-0.06829339231129296,807.4725274725275,801.8315018315019,610.4395604395604,801.8315018315019,722.8571428571429,-0.107361,0.201782,0.979736,0.515900,-2.190704,-0.082245,726080.586081,115387179.487179,88240146.520147,86.578453,1,2,1,2,2,70.000000
2025-05-02 14:48:03.497,,,,,,,,,,,,,,,,,,,,,,,,,,,,,,,,,,,,,,,,,,/muse/elements/blink
